File: Examples/RSMap.uxd
;content of D:\DATA\ab2016\SiC-Si\2e14\002map.raw - (Diffrac Plus V4 file)
_FILEVERSION = 3
_SAMPLE
_+SAMPLE
_USER = Lab Manager
_GONIOMETER_CODE = 20
_STAGE_CODE = 4
; Goniometer : D8 theta/2theta, stage : Open eulerian craddle
_SAMPLE_CHANGER_CODE = 0
_ATTACHMENTS_CODE = 0
_GONIOMETER_RADIUS = 390
_FIXED_DETSLIT = 0
_MONOCHROMATOR = 0
; Incident beam monochromator : None
_BETA_FILTER = N
_ANALYZER_CODE = 0
; Received beam analyzer : None
_DATEMEASURED = 18-May-2016 11:46:53
_RUNTIME = 31.15342
_WL_UNIT = A
_WL1 = 1.5406
_WL2 = 1.54439
_WL3 = 1.39222
_WLRATIO = 0.5
_ANODE = Cu
_V4_INF_USER = Lab Manager
_V4_INF_CREATOR = V5Converter
_V4_INF_CREATOR_VERSION = 3.3.50.0

; Data for range 1
_DRIVE = PSDFIXED
_STEPTIME = 1
_STEPSIZE = 0.010714
_STEPMODE = S
_START = 39.9
_THETA = 18
_2THETA = 39.9
_KHI = -0.006
_PHI = 0.000039
_X = 0.784004
_Y = 1.103027
_Z = 0.710508
_DETECTORSLIT = out
_AUX1 = 0
_AUX2 = -2.34
_TIMESTARTED = 0
_KV = 40
_MA = 40
_RANGE_WL = 1.5406
_3DPLANE = 0
_V4_PSD2THETA = 9999
_V4_PSDCHANNEL1 = 0
_V4_PSDAPERTURE = 2.057142
_V4_PSDTYPE = 5
_V4_PSDFIXED = 1
_V4_TEMPCONTROL = 0
_V4_TEMPSTAGE = 0
_V4_TEMPSENSOR = 0
_V4_TEMPERATURE = 2221.15
_V4_TEMPRATE = 0
_V4_TEMPDELAY = 0
_V4_TEMPRAMPFLAG = 0
_V4_COUNTERS_MASK = 1
_V4_DRIVES_MASK = 0
_V4_ENCODERS_MASK = 0
_2THETACOUNTS = 1
; 2THETA	Cnt2_D1
39.9	1.000000
39.9107	2.000000
39.9214	0.000000
39.9321	0.000000
39.9429	2.000000
39.9536	2.000000
39.9643	0.000000
39.975	0.000000
39.9857	0.000000
39.9964	1.000000
40.0071	2.000000
40.0179	2.000000
40.0286	0.000000
40.0393	0.000000
40.05	0.000000
40.0607	0.000000
40.0714	1.000000
40.0821	1.000000
40.0929	0.000000
40.1036	0.000000
40.1143	0.000000
40.125	1.000000
40.1357	1.000000
40.1464	2.000000
40.1571	0.000000
40.1679	0.000000
40.1786	1.000000
40.1893	1.000000
40.2	1.000000
40.2107	0.000000
40.2214	0.000000
40.2321	0.000000
40.2429	2.000000
40.2536	3.000000
40.2643	2.000000
40.275	0.000000
40.2857	5.000000
40.2964	2.000000
40.3071	2.000000
40.3179	1.000000
40.3286	3.000000
40.3393	3.000000
40.35	0.000000
40.3607	1.000000
40.3714	2.000000
40.3821	1.000000
40.3929	1.000000
40.4036	2.000000
40.4143	1.000000
40.425	2.000000
40.4357	2.000000
40.4464	3.000000
40.4571	0.000000
40.4679	1.000000
40.4786	0.000000
40.4893	0.000000
40.5	3.000000
40.5107	0.000000
40.5214	1.000000
40.5321	0.000000
40.5429	2.000000
40.5536	0.000000
40.5643	1.000000
40.575	3.000000
40.5857	2.000000
40.5964	3.000000
40.6071	0.000000
40.6179	1.000000
40.6286	1.000000
40.6393	2.000000
40.65	2.000000
40.6607	0.000000
40.6714	2.000000
40.6821	0.000000
40.6929	2.000000
40.7036	0.000000
40.7143	0.000000
40.725	0.000000
40.7357	1.000000
40.7464	0.000000
40.7571	0.000000
40.7679	0.000000
40.7786	0.000000
40.7893	2.000000
40.8	2.000000
40.8107	1.000000
40.8214	0.000000
40.8321	0.000000
40.8429	1.000000
40.8536	0.000000
40.8643	1.000000
40.875	0.000000
40.8857	0.000000
40.8964	2.000000
40.9071	2.000000
40.9179	2.000000
40.9286	1.000000
40.9393	0.000000
40.95	2.000000
40.9607	3.000000
40.9714	3.000000
40.9821	2.000000
40.9929	0.000000
41.0036	1.000000
41.0143	2.000000
41.025	1.000000
41.0357	0.000000
41.0464	1.000000
41.0571	0.000000
41.0679	1.000000
41.0786	1.000000
41.0893	2.000000
41.1	2.000000
41.1107	0.000000
41.1214	1.000000
41.1321	1.000000
41.1429	1.000000
41.1536	0.000000
41.1643	1.000000
41.175	1.000000
41.1857	0.000000
41.1964	1.000000
41.2071	0.000000
41.2179	2.000000
41.2286	1.000000
41.2393	2.000000
41.25	1.000000
41.2607	2.000000
41.2714	1.000000
41.2821	0.000000
41.2929	0.000000
41.3036	1.000000
41.3143	1.000000
41.325	2.000000
41.3357	2.000000
41.3464	0.000000
41.3571	0.000000
41.3679	0.000000
41.3786	0.000000
41.3893	0.000000
41.4	0.000000
41.4107	2.000000
41.4214	0.000000
41.4321	0.000000
41.4429	1.000000
41.4536	1.000000
41.4643	0.000000
41.475	1.000000
41.4857	0.000000
41.4964	2.000000
41.5071	0.000000
41.5179	0.000000
41.5286	0.000000
41.5393	2.000000
41.55	1.000000
41.5607	0.000000
41.5714	0.000000
41.5821	1.000000
41.5929	0.000000
41.6036	1.000000
41.6143	1.000000
41.625	2.000000
41.6357	1.000000
41.6464	0.000000
41.6571	1.000000
41.6679	2.000000
41.6786	1.000000
41.6893	1.000000
41.7	0.000000
41.7107	3.000000
41.7214	2.000000
41.7321	0.000000
41.7429	1.000000
41.7536	0.000000
41.7643	1.000000
41.775	3.000000
41.7857	1.000000
41.7964	1.000000
41.8071	3.000000
41.8179	1.000000
41.8286	0.000000
41.8393	1.000000
41.85	1.000000
41.8607	1.000000
41.8714	1.000000
41.8821	1.000000
41.8929	0.000000
41.9036	0.000000
41.9143	1.000000
41.925	0.000000
41.9357	0.000000
41.9464	0.000000

; Data for range 2
_DRIVE = PSDFIXED
_STEPTIME = 1
_STEPSIZE = 0.010714
_STEPMODE = S
_START = 39.9
_THETA = 18.01
_2THETA = 39.9
_KHI = -0.006
_PHI = 0.000039
_X = 0.784004
_Y = 1.103027
_Z = 0.710508
_DETECTORSLIT = out
_AUX1 = 0
_AUX2 = -2.34
_TIMESTARTED = 6.318011
_KV = 40
_MA = 40
_RANGE_WL = 1.5406
_3DPLANE = 0
_V4_PSD2THETA = 9999
_V4_PSDCHANNEL1 = 0
_V4_PSDAPERTURE = 2.057142
_V4_PSDTYPE = 5
_V4_PSDFIXED = 1
_V4_TEMPCONTROL = 0
_V4_TEMPSTAGE = 0
_V4_TEMPSENSOR = 0
_V4_TEMPERATURE = 2221.15
_V4_TEMPRATE = 0
_V4_TEMPDELAY = 0
_V4_TEMPRAMPFLAG = 0
_V4_COUNTERS_MASK = 1
_V4_DRIVES_MASK = 0
_V4_ENCODERS_MASK = 0
_2THETACOUNTS = 1
; 2THETA	Cnt2_D1
39.9	0.000000
39.9107	1.000000
39.9214	2.000000
39.9321	3.000000
39.9429	3.000000
39.9536	1.000000
39.9643	0.000000
39.975	0.000000
39.9857	1.000000
39.9964	0.000000
40.0071	0.000000
40.0179	0.000000
40.0286	0.000000
40.0393	2.000000
40.05	2.000000
40.0607	0.000000
40.0714	0.000000
40.0821	1.000000
40.0929	0.000000
40.1036	0.000000
40.1143	0.000000
40.125	0.000000
40.1357	0.000000
40.1464	2.000000
40.1571	1.000000
40.1679	0.000000
40.1786	1.000000
40.1893	0.000000
40.2	3.000000
40.2107	1.000000
40.2214	2.000000
40.2321	1.000000
40.2429	0.000000
40.2536	2.000000
40.2643	0.000000
40.275	4.000000
40.2857	1.000000
40.2964	4.000000
40.3071	1.000000
40.3179	3.000000
40.3286	0.000000
40.3393	3.000000
40.35	2.000000
40.3607	3.000000
40.3714	1.000000
40.3821	2.000000
40.3929	1.000000
40.4036	1.000000
40.4143	2.000000
40.425	1.000000
40.4357	1.000000
40.4464	1.000000
40.4571	1.000000
40.4679	1.000000
40.4786	1.000000
40.4893	4.000000
40.5	0.000000
40.5107	0.000000
40.5214	0.000000
40.5321	2.000000
40.5429	1.000000
40.5536	0.000000
40.5643	1.000000
40.575	2.000000
40.5857	2.000000
40.5964	1.000000
40.6071	1.000000
40.6179	1.000000
40.6286	1.000000
40.6393	0.000000
40.65	2.000000
40.6607	2.000000
40.6714	0.000000
40.6821	2.000000
40.6929	0.000000
40.7036	0.000000
40.7143	0.000000
40.725	0.000000
40.7357	0.000000
40.7464	3.000000
40.7571	0.000000
40.7679	1.000000
40.7786	1.000000
40.7893	0.000000
40.8	1.000000
40.8107	1.000000
40.8214	1.000000
40.8321	0.000000
40.8429	2.000000
40.8536	1.000000
40.8643	0.000000
40.875	1.000000
40.8857	3.000000
40.8964	1.000000
40.9071	0.000000
40.9179	0.000000
40.9286	3.000000
40.9393	1.000000
40.95	0.000000
40.9607	1.000000
40.9714	1.000000
40.9821	0.000000
40.9929	0.000000
41.0036	2.000000
41.0143	1.000000
41.025	1.000000
41.0357	0.000000
41.0464	0.000000
41.0571	0.000000
41.0679	0.000000
41.0786	1.000000
41.0893	1.000000
41.1	1.000000
41.1107	0.000000
41.1214	0.000000
41.1321	1.000000
41.1429	1.000000
41.1536	1.000000
41.1643	0.000000
41.175	1.000000
41.1857	2.000000
41.1964	0.000000
41.2071	1.000000
41.2179	0.000000
41.2286	1.000000
41.2393	2.000000
41.25	1.000000
41.2607	1.000000
41.2714	2.000000
41.2821	4.000000
41.2929	0.000000
41.3036	2.000000
41.3143	3.000000
41.325	2.000000
41.3357	1.000000
41.3464	0.000000
41.3571	0.000000
41.3679	2.000000
41.3786	0.000000
41.3893	1.000000
41.4	1.000000
41.4107	0.000000
41.4214	0.000000
41.4321	1.000000
41.4429	2.000000
41.4536	1.000000
41.4643	1.000000
41.475	0.000000
41.4857	1.000000
41.4964	0.000000
41.5071	1.000000
41.5179	2.000000
41.5286	0.000000
41.5393	1.000000
41.55	0.000000
41.5607	2.000000
41.5714	1.000000
41.5821	0.000000
41.5929	0.000000
41.6036	2.000000
41.6143	1.000000
41.625	0.000000
41.6357	2.000000
41.6464	2.000000
41.6571	0.000000
41.6679	0.000000
41.6786	0.000000
41.6893	1.000000
41.7	0.000000
41.7107	1.000000
41.7214	1.000000
41.7321	0.000000
41.7429	0.000000
41.7536	0.000000
41.7643	2.000000
41.775	0.000000
41.7857	0.000000
41.7964	1.000000
41.8071	1.000000
41.8179	1.000000
41.8286	0.000000
41.8393	0.000000
41.85	2.000000
41.8607	0.000000
41.8714	0.000000
41.8821	1.000000
41.8929	2.000000
41.9036	0.000000
41.9143	0.000000
41.925	0.000000
41.9357	0.000000
41.9464	0.000000

; Data for range 3
_DRIVE = PSDFIXED
_STEPTIME = 1
_STEPSIZE = 0.010714
_STEPMODE = S
_START = 39.9
_THETA = 18.02
_2THETA = 39.9
_KHI = -0.006
_PHI = 0.000039
_X = 0.784004
_Y = 1.103027
_Z = 0.710508
_DETECTORSLIT = out
_AUX1 = 0
_AUX2 = -2.34
_TIMESTARTED = 12.55802
_KV = 40
_MA = 40
_RANGE_WL = 1.5406
_3DPLANE = 0
_V4_PSD2THETA = 9999
_V4_PSDCHANNEL1 = 0
_V4_PSDAPERTURE = 2.057142
_V4_PSDTYPE = 5
_V4_PSDFIXED = 1
_V4_TEMPCONTROL = 0
_V4_TEMPSTAGE = 0
_V4_TEMPSENSOR = 0
_V4_TEMPERATURE = 2221.15
_V4_TEMPRATE = 0
_V4_TEMPDELAY = 0
_V4_TEMPRAMPFLAG = 0
_V4_COUNTERS_MASK = 1
_V4_DRIVES_MASK = 0
_V4_ENCODERS_MASK = 0
_2THETACOUNTS = 1
; 2THETA	Cnt2_D1
39.9	0.000000
39.9107	0.000000
39.9214	2.000000
39.9321	0.000000
39.9429	0.000000
39.9536	1.000000
39.9643	1.000000
39.975	0.000000
39.9857	0.000000
39.9964	2.000000
40.0071	0.000000
40.0179	0.000000
40.0286	0.000000
40.0393	0.000000
40.05	0.000000
40.0607	0.000000
40.0714	0.000000
40.0821	0.000000
40.0929	1.000000
40.1036	0.000000
40.1143	0.000000
40.125	0.000000
40.1357	0.000000
40.1464	1.000000
40.1571	2.000000
40.1679	0.000000
40.1786	1.000000
40.1893	0.000000
40.2	0.000000
40.2107	0.000000
40.2214	2.000000
40.2321	3.000000
40.2429	3.000000
40.2536	2.000000
40.2643	1.000000
40.275	4.000000
40.2857	3.000000
40.2964	4.000000
40.3071	2.000000
40.3179	0.000000
40.3286	3.000000
40.3393	2.000000
40.35	2.000000
40.3607	5.000000
40.3714	5.000000
40.3821	0.000000
40.3929	1.000000
40.4036	6.000000
40.4143	2.000000
40.425	5.000000
40.4357	1.000000
40.4464	2.000000
40.4571	1.000000
40.4679	0.000000
40.4786	1.000000
40.4893	0.000000
40.5	1.000000
40.5107	2.000000
40.5214	2.000000
40.5321	1.000000
40.5429	3.000000
40.5536	1.000000
40.5643	1.000000
40.575	2.000000
40.5857	0.000000
40.5964	1.000000
40.6071	0.000000
40.6179	0.000000
40.6286	0.000000
40.6393	1.000000
40.65	1.000000
40.6607	0.000000
40.6714	1.000000
40.6821	3.000000
40.6929	2.000000
40.7036	1.000000
40.7143	2.000000
40.725	0.000000
40.7357	1.000000
40.7464	2.000000
40.7571	0.000000
40.7679	1.000000
40.7786	0.000000
40.7893	2.000000
40.8	0.000000
40.8107	2.000000
40.8214	1.000000
40.8321	1.000000
40.8429	0.000000
40.8536	2.000000
40.8643	1.000000
40.875	2.000000
40.8857	2.000000
40.8964	0.000000
40.9071	1.000000
40.9179	0.000000
40.9286	1.000000
40.9393	0.000000
40.95	1.000000
40.9607	3.000000
40.9714	0.000000
40.9821	0.000000
40.9929	1.000000
41.0036	2.000000
41.0143	1.000000
41.025	2.000000
41.0357	0.000000
41.0464	0.000000
41.0571	0.000000
41.0679	1.000000
41.0786	2.000000
41.0893	2.000000
41.1	0.000000
41.1107	1.000000
41.1214	3.000000
41.1321	3.000000
41.1429	0.000000
41.1536	0.000000
41.1643	1.000000
41.175	1.000000
41.1857	0.000000
41.1964	0.000000
41.2071	0.000000
41.2179	0.000000
41.2286	0.000000
41.2393	0.000000
41.25	1.000000
41.2607	0.000000
41.2714	2.000000
41.2821	2.000000
41.2929	0.000000
41.3036	1.000000
41.3143	1.000000
41.325	1.000000
41.3357	0.000000
41.3464	1.000000
41.3571	2.000000
41.3679	1.000000
41.3786	1.000000
41.3893	4.000000
41.4	1.000000
41.4107	2.000000
41.4214	1.000000
41.4321	1.000000
41.4429	2.000000
41.4536	3.000000
41.4643	3.000000
41.475	2.000000
41.4857	0.000000
41.4964	0.000000
41.5071	0.000000
41.5179	1.000000
41.5286	1.000000
41.5393	1.000000
41.55	0.000000
41.5607	1.000000
41.5714	1.000000
41.5821	1.000000
41.5929	1.000000
41.6036	0.000000
41.6143	1.000000
41.625	0.000000
41.6357	2.000000
41.6464	1.000000
41.6571	1.000000
41.6679	1.000000
41.6786	2.000000
41.6893	1.000000
41.7	1.000000
41.7107	0.000000
41.7214	0.000000
41.7321	1.000000
41.7429	0.000000
41.7536	1.000000
41.7643	3.000000
41.775	1.000000
41.7857	1.000000
41.7964	1.000000
41.8071	0.000000
41.8179	0.000000
41.8286	2.000000
41.8393	0.000000
41.85	0.000000
41.8607	0.000000
41.8714	0.000000
41.8821	1.000000
41.8929	0.000000
41.9036	0.000000
41.9143	0.000000
41.925	0.000000
41.9357	0.000000
41.9464	0.000000

; Data for range 4
_DRIVE = PSDFIXED
_STEPTIME = 1
_STEPSIZE = 0.010714
_STEPMODE = S
_START = 39.9
_THETA = 18.03
_2THETA = 39.9
_KHI = -0.006
_PHI = 0.000039
_X = 0.784004
_Y = 1.103027
_Z = 0.710508
_DETECTORSLIT = out
_AUX1 = 0
_AUX2 = -2.34
_TIMESTARTED = 18.93843
_KV = 40
_MA = 40
_RANGE_WL = 1.5406
_3DPLANE = 0
_V4_PSD2THETA = 9999
_V4_PSDCHANNEL1 = 0
_V4_PSDAPERTURE = 2.057142
_V4_PSDTYPE = 5
_V4_PSDFIXED = 1
_V4_TEMPCONTROL = 0
_V4_TEMPSTAGE = 0
_V4_TEMPSENSOR = 0
_V4_TEMPERATURE = 2221.15
_V4_TEMPRATE = 0
_V4_TEMPDELAY = 0
_V4_TEMPRAMPFLAG = 0
_V4_COUNTERS_MASK = 1
_V4_DRIVES_MASK = 0
_V4_ENCODERS_MASK = 0
_2THETACOUNTS = 1
; 2THETA	Cnt2_D1
39.9	2.000000
39.9107	2.000000
39.9214	1.000000
39.9321	0.000000
39.9429	3.000000
39.9536	3.000000
39.9643	0.000000
39.975	0.000000
39.9857	0.000000
39.9964	0.000000
40.0071	1.000000
40.0179	4.000000
40.0286	0.000000
40.0393	0.000000
40.05	0.000000
40.0607	0.000000
40.0714	2.000000
40.0821	0.000000
40.0929	0.000000
40.1036	2.000000
40.1143	0.000000
40.125	1.000000
40.1357	0.000000
40.1464	1.000000
40.1571	2.000000
40.1679	0.000000
40.1786	0.000000
40.1893	1.000000
40.2	1.000000
40.2107	2.000000
40.2214	0.000000
40.2321	0.000000
40.2429	1.000000
40.2536	1.000000
40.2643	4.000000
40.275	1.000000
40.2857	2.000000
40.2964	4.000000
40.3071	4.000000
40.3179	2.000000
40.3286	0.000000
40.3393	3.000000
40.35	1.000000
40.3607	2.000000
40.3714	3.000000
40.3821	0.000000
40.3929	0.000000
40.4036	1.000000
40.4143	1.000000
40.425	2.000000
40.4357	4.000000
40.4464	0.000000
40.4571	3.000000
40.4679	2.000000
40.4786	0.000000
40.4893	0.000000
40.5	2.000000
40.5107	0.000000
40.5214	0.000000
40.5321	1.000000
40.5429	1.000000
40.5536	0.000000
40.5643	1.000000
40.575	0.000000
40.5857	1.000000
40.5964	1.000000
40.6071	0.000000
40.6179	0.000000
40.6286	3.000000
40.6393	1.000000
40.65	2.000000
40.6607	1.000000
40.6714	3.000000
40.6821	1.000000
40.6929	0.000000
40.7036	0.000000
40.7143	1.000000
40.725	1.000000
40.7357	4.000000
40.7464	0.000000
40.7571	1.000000
40.7679	0.000000
40.7786	0.000000
40.7893	0.000000
40.8	1.000000
40.8107	2.000000
40.8214	0.000000
40.8321	2.000000
40.8429	1.000000
40.8536	4.000000
40.8643	3.000000
40.875	1.000000
40.8857	1.000000
40.8964	3.000000
40.9071	0.000000
40.9179	1.000000
40.9286	1.000000
40.9393	1.000000
40.95	2.000000
40.9607	1.000000
40.9714	2.000000
40.9821	1.000000
40.9929	0.000000
41.0036	3.000000
41.0143	0.000000
41.025	0.000000
41.0357	2.000000
41.0464	0.000000
41.0571	1.000000
41.0679	2.000000
41.0786	2.000000
41.0893	0.000000
41.1	0.000000
41.1107	1.000000
41.1214	0.000000
41.1321	2.000000
41.1429	0.000000
41.1536	0.000000
41.1643	0.000000
41.175	0.000000
41.1857	0.000000
41.1964	0.000000
41.2071	0.000000
41.2179	1.000000
41.2286	2.000000
41.2393	0.000000
41.25	0.000000
41.2607	0.000000
41.2714	1.000000
41.2821	0.000000
41.2929	1.000000
41.3036	2.000000
41.3143	4.000000
41.325	0.000000
41.3357	0.000000
41.3464	3.000000
41.3571	1.000000
41.3679	1.000000
41.3786	3.000000
41.3893	3.000000
41.4	1.000000
41.4107	0.000000
41.4214	2.000000
41.4321	1.000000
41.4429	0.000000
41.4536	1.000000
41.4643	0.000000
41.475	1.000000
41.4857	0.000000
41.4964	0.000000
41.5071	0.000000
41.5179	0.000000
41.5286	1.000000
41.5393	1.000000
41.55	0.000000
41.5607	0.000000
41.5714	1.000000
41.5821	0.000000
41.5929	0.000000
41.6036	1.000000
41.6143	1.000000
41.625	1.000000
41.6357	1.000000
41.6464	3.000000
41.6571	0.000000
41.6679	0.000000
41.6786	2.000000
41.6893	0.000000
41.7	1.000000
41.7107	1.000000
41.7214	0.000000
41.7321	1.000000
41.7429	0.000000
41.7536	0.000000
41.7643	2.000000
41.775	1.000000
41.7857	0.000000
41.7964	0.000000
41.8071	0.000000
41.8179	0.000000
41.8286	1.000000
41.8393	0.000000
41.85	0.000000
41.8607	1.000000
41.8714	1.000000
41.8821	0.000000
41.8929	0.000000
41.9036	0.000000
41.9143	0.000000
41.925	0.000000
41.9357	0.000000
41.9464	0.000000

; Data for range 5
_DRIVE = PSDFIXED
_STEPTIME = 1
_STEPSIZE = 0.010714
_STEPMODE = S
_START = 39.9
_THETA = 18.04
_2THETA = 39.9
_KHI = -0.006
_PHI = 0.000039
_X = 0.784004
_Y = 1.103027
_Z = 0.710508
_DETECTORSLIT = out
_AUX1 = 0
_AUX2 = -2.34
_TIMESTARTED = 25.31884
_KV = 40
_MA = 40
_RANGE_WL = 1.5406
_3DPLANE = 0
_V4_PSD2THETA = 9999
_V4_PSDCHANNEL1 = 0
_V4_PSDAPERTURE = 2.057142
_V4_PSDTYPE = 5
_V4_PSDFIXED = 1
_V4_TEMPCONTROL = 0
_V4_TEMPSTAGE = 0
_V4_TEMPSENSOR = 0
_V4_TEMPERATURE = 2221.15
_V4_TEMPRATE = 0
_V4_TEMPDELAY = 0
_V4_TEMPRAMPFLAG = 0
_V4_COUNTERS_MASK = 1
_V4_DRIVES_MASK = 0
_V4_ENCODERS_MASK = 0
_2THETACOUNTS = 1
; 2THETA	Cnt2_D1
39.9	0.000000
39.9107	0.000000
39.9214	4.000000
39.9321	2.000000
39.9429	0.000000
39.9536	1.000000
39.9643	1.000000
39.975	0.000000
39.9857	1.000000
39.9964	1.000000
40.0071	1.000000
40.0179	2.000000
40.0286	0.000000
40.0393	0.000000
40.05	0.000000
40.0607	1.000000
40.0714	1.000000
40.0821	0.000000
40.0929	0.000000
40.1036	1.000000
40.1143	0.000000
40.125	0.000000
40.1357	2.000000
40.1464	3.000000
40.1571	1.000000
40.1679	2.000000
40.1786	1.000000
40.1893	1.000000
40.2	4.000000
40.2107	1.000000
[...]
41.3786	2.000000
41.3893	2.000000
41.4	1.000000
41.4107	0.000000
41.4214	1.000000
41.4321	1.000000
41.4429	3.000000
41.4536	0.000000
41.4643	1.000000
41.475	0.000000
41.4857	0.000000
41.4964	0.000000
41.5071	2.000000
41.5179	1.000000
41.5286	2.000000
41.5393	2.000000
41.55	1.000000
41.5607	0.000000
41.5714	0.000000
41.5821	1.000000
41.5929	1.000000
41.6036	1.000000
41.6143	0.000000
41.625	0.000000
41.6357	2.000000
41.6464	1.000000
41.6571	0.000000
41.6679	0.000000
41.6786	2.000000
41.6893	2.000000
41.7	0.000000
41.7107	0.000000
41.7214	1.000000
41.7321	0.000000
41.7429	0.000000
41.7536	0.000000
41.7643	0.000000
41.775	0.000000
41.7857	0.000000
41.7964	1.000000
41.8071	0.000000
41.8179	2.000000
41.8286	0.000000
41.8393	1.000000
41.85	0.000000
41.8607	0.000000
41.8714	0.000000
41.8821	0.000000
41.8929	1.000000
41.9036	0.000000
41.9143	0.000000
41.925	0.000000
41.9357	0.000000
41.9464	0.000000

; Data for range 500
_DRIVE = PSDFIXED
_STEPTIME = 1
_STEPSIZE = 0.010714
_STEPMODE = S
_START = 39.9
_THETA = 22.99
_2THETA = 39.9
_KHI = -0.006
_PHI = 0.000039
_X = 0.784004
_Y = 1.103027
_Z = 0.710508
_DETECTORSLIT = out
_AUX1 = 0
_AUX2 = -2.34
_TIMESTARTED = 3101.958
_KV = 40
_MA = 40
_RANGE_WL = 1.5406
_3DPLANE = 0
_V4_PSD2THETA = 9999
_V4_PSDCHANNEL1 = 0
_V4_PSDAPERTURE = 2.057142
_V4_PSDTYPE = 5
_V4_PSDFIXED = 1
_V4_TEMPCONTROL = 0
_V4_TEMPSTAGE = 0
_V4_TEMPSENSOR = 0
_V4_TEMPERATURE = 2221.15
_V4_TEMPRATE = 0
_V4_TEMPDELAY = 0
_V4_TEMPRAMPFLAG = 0
_V4_COUNTERS_MASK = 1
_V4_DRIVES_MASK = 0
_V4_ENCODERS_MASK = 0
_2THETACOUNTS = 1
; 2THETA	Cnt2_D1
39.9	1.000000
39.9107	0.000000
39.9214	1.000000
39.9321	0.000000
39.9429	0.000000
39.9536	0.000000
39.9643	1.000000
39.975	2.000000
39.9857	0.000000
39.9964	0.000000
40.0071	0.000000
40.0179	1.000000
40.0286	0.000000
40.0393	2.000000
40.05	0.000000
40.0607	1.000000
40.0714	1.000000
40.0821	1.000000
40.0929	1.000000
40.1036	3.000000
40.1143	0.000000
40.125	0.000000
40.1357	2.000000
40.1464	1.000000
40.1571	0.000000
40.1679	0.000000
40.1786	0.000000
40.1893	3.000000
40.2	2.000000
40.2107	1.000000
40.2214	1.000000
40.2321	2.000000
40.2429	0.000000
40.2536	0.000000
40.2643	2.000000
40.275	2.000000
40.2857	1.000000
40.2964	1.000000
40.3071	0.000000
40.3179	1.000000
40.3286	1.000000
40.3393	2.000000
40.35	0.000000
40.3607	1.000000
40.3714	1.000000
40.3821	0.000000
40.3929	2.000000
40.4036	0.000000
40.4143	0.000000
40.425	0.000000
40.4357	2.000000
40.4464	3.000000
40.4571	2.000000
40.4679	1.000000
40.4786	1.000000
40.4893	1.000000
40.5	1.000000
40.5107	1.000000
40.5214	0.000000
40.5321	0.000000
40.5429	0.000000
40.5536	1.000000
40.5643	1.000000
40.575	1.000000
40.5857	0.000000
40.5964	0.000000
40.6071	1.000000
40.6179	1.000000
40.6286	1.000000
40.6393	3.000000
40.65	1.000000
40.6607	1.000000
40.6714	1.000000
40.6821	1.000000
40.6929	0.000000
40.7036	0.000000
40.7143	1.000000
40.725	1.000000
40.7357	0.000000
40.7464	1.000000
40.7571	0.000000
40.7679	0.000000
40.7786	1.000000
40.7893	0.000000
40.8	0.000000
40.8107	2.000000
40.8214	0.000000
40.8321	0.000000
40.8429	1.000000
40.8536	1.000000
40.8643	1.000000
40.875	0.000000
40.8857	0.000000
40.8964	0.000000
40.9071	1.000000
40.9179	1.000000
40.9286	0.000000
40.9393	1.000000
40.95	0.000000
40.9607	0.000000
40.9714	2.000000
40.9821	1.000000
40.9929	1.000000
41.0036	3.000000
41.0143	0.000000
41.025	0.000000
41.0357	0.000000
41.0464	0.000000
41.0571	0.000000
41.0679	1.000000
41.0786	2.000000
41.0893	1.000000
41.1	1.000000
41.1107	2.000000
41.1214	0.000000
41.1321	4.000000
41.1429	1.000000
41.1536	1.000000
41.1643	0.000000
41.175	0.000000
41.1857	0.000000
41.1964	1.000000
41.2071	2.000000
41.2179	0.000000
41.2286	0.000000
41.2393	2.000000
41.25	0.000000
41.2607	1.000000
41.2714	1.000000
41.2821	1.000000
41.2929	0.000000
41.3036	3.000000
41.3143	2.000000
41.325	0.000000
41.3357	1.000000
41.3464	1.000000
41.3571	0.000000
41.3679	1.000000
41.3786	1.000000
41.3893	0.000000
41.4	0.000000
41.4107	0.000000
41.4214	0.000000
41.4321	1.000000
41.4429	1.000000
41.4536	1.000000
41.4643	0.000000
41.475	2.000000
41.4857	0.000000
41.4964	1.000000
41.5071	0.000000
41.5179	0.000000
41.5286	1.000000
41.5393	0.000000
41.55	0.000000
41.5607	0.000000
41.5714	2.000000
41.5821	0.000000
41.5929	2.000000
41.6036	1.000000
41.6143	0.000000
41.625	0.000000
41.6357	2.000000
41.6464	0.000000
41.6571	0.000000
41.6679	0.000000
41.6786	1.000000
41.6893	0.000000
41.7	0.000000
41.7107	1.000000
41.7214	1.000000
41.7321	1.000000
41.7429	0.000000
41.7536	1.000000
41.7643	2.000000
41.775	0.000000
41.7857	2.000000
41.7964	0.000000
41.8071	0.000000
41.8179	1.000000
41.8286	1.000000
41.8393	0.000000
41.85	0.000000
41.8607	1.000000
41.8714	0.000000
41.8821	1.000000
41.8929	1.000000
41.9036	0.000000
41.9143	1.000000
41.925	0.000000
41.9357	0.000000
41.9464	0.000000

; Data for range 501
_DRIVE = PSDFIXED
_STEPTIME = 1
_STEPSIZE = 0.010714
_STEPMODE = S
_START = 39.9
_THETA = 23
_2THETA = 39.9
_KHI = -0.006
_PHI = 0.000039
_X = 0.784004
_Y = 1.103027
_Z = 0.710508
_DETECTORSLIT = out
_AUX1 = 0
_AUX2 = -2.34
_TIMESTARTED = 3108.088
_KV = 40
_MA = 40
_RANGE_WL = 1.5406
_3DPLANE = 0
_V4_PSD2THETA = 9999
_V4_PSDCHANNEL1 = 0
_V4_PSDAPERTURE = 2.057142
_V4_PSDTYPE = 5
_V4_PSDFIXED = 1
_V4_TEMPCONTROL = 0
_V4_TEMPSTAGE = 0
_V4_TEMPSENSOR = 0
_V4_TEMPERATURE = 2221.15
_V4_TEMPRATE = 0
_V4_TEMPDELAY = 0
_V4_TEMPRAMPFLAG = 0
_V4_COUNTERS_MASK = 1
_V4_DRIVES_MASK = 0
_V4_ENCODERS_MASK = 0
_2THETACOUNTS = 1
; 2THETA	Cnt2_D1
39.9	0.000000
39.9107	0.000000
39.9214	0.000000
39.9321	1.000000
39.9429	0.000000
39.9536	1.000000
39.9643	2.000000
39.975	2.000000
39.9857	2.000000
39.9964	1.000000
40.0071	1.000000
40.0179	0.000000
40.0286	0.000000
40.0393	0.000000
40.05	0.000000
40.0607	0.000000
40.0714	0.000000
40.0821	1.000000
40.0929	0.000000
40.1036	0.000000
40.1143	1.000000
40.125	0.000000
40.1357	2.000000
40.1464	0.000000
40.1571	1.000000
40.1679	1.000000
40.1786	1.000000
40.1893	1.000000
40.2	0.000000
40.2107	1.000000
40.2214	1.000000
40.2321	1.000000
40.2429	0.000000
40.2536	1.000000
40.2643	1.000000
40.275	2.000000
40.2857	1.000000
40.2964	0.000000
40.3071	0.000000
40.3179	0.000000
40.3286	0.000000
40.3393	2.000000
40.35	1.000000
40.3607	1.000000
40.3714	2.000000
40.3821	1.000000
40.3929	0.000000
40.4036	1.000000
40.4143	1.000000
40.425	0.000000
40.4357	2.000000
40.4464	1.000000
40.4571	0.000000
40.4679	0.000000
40.4786	2.000000
40.4893	2.000000
40.5	1.000000
40.5107	1.000000
40.5214	1.000000
40.5321	1.000000
40.5429	2.000000
40.5536	1.000000
40.5643	1.000000
40.575	1.000000
40.5857	0.000000
40.5964	2.000000
40.6071	1.000000
40.6179	1.000000
40.6286	2.000000
40.6393	5.000000
40.65	0.000000
40.6607	0.000000
40.6714	0.000000
40.6821	0.000000
40.6929	1.000000
40.7036	2.000000
40.7143	1.000000
40.725	0.000000
40.7357	2.000000
40.7464	2.000000
40.7571	0.000000
40.7679	0.000000
40.7786	1.000000
40.7893	2.000000
40.8	0.000000
40.8107	1.000000
40.8214	2.000000
40.8321	2.000000
40.8429	0.000000
40.8536	1.000000
40.8643	1.000000
40.875	1.000000
40.8857	0.000000
40.8964	1.000000
40.9071	1.000000
40.9179	0.000000
40.9286	0.000000
40.9393	0.000000
40.95	1.000000
40.9607	2.000000
40.9714	1.000000
40.9821	1.000000
40.9929	0.000000
41.0036	2.000000
41.0143	1.000000
41.025	0.000000
41.0357	2.000000
41.0464	1.000000
41.0571	2.000000
41.0679	1.000000
41.0786	3.000000
41.0893	1.000000
41.1	0.000000
41.1107	0.000000
41.1214	2.000000
41.1321	0.000000
41.1429	1.000000
41.1536	1.000000
41.1643	0.000000
41.175	0.000000
41.1857	0.000000
41.1964	0.000000
41.2071	0.000000
41.2179	0.000000
41.2286	1.000000
41.2393	2.000000
41.25	3.000000
41.2607	2.000000
41.2714	1.000000
41.2821	3.000000
41.2929	1.000000
41.3036	1.000000
41.3143	1.000000
41.325	0.000000
41.3357	1.000000
41.3464	0.000000
41.3571	0.000000
41.3679	0.000000
41.3786	0.000000
41.3893	2.000000
41.4	0.000000
41.4107	0.000000
41.4214	0.000000
41.4321	0.000000
41.4429	1.000000
41.4536	1.000000
41.4643	3.000000
41.475	2.000000
41.4857	1.000000
41.4964	0.000000
41.5071	0.000000
41.5179	2.000000
41.5286	0.000000
41.5393	1.000000
41.55	0.000000
41.5607	0.000000
41.5714	2.000000
41.5821	0.000000
41.5929	0.000000
41.6036	0.000000
41.6143	0.000000
41.625	1.000000
41.6357	1.000000
41.6464	2.000000
41.6571	3.000000
41.6679	2.000000
41.6786	3.000000
41.6893	2.000000
41.7	1.000000
41.7107	2.000000
41.7214	1.000000
41.7321	2.000000
41.7429	0.000000
41.7536	1.000000
41.7643	1.000000
41.775	0.000000
41.7857	0.000000
41.7964	0.000000
41.8071	1.000000
41.8179	2.000000
41.8286	0.000000
41.8393	0.000000
41.85	3.000000
41.8607	1.000000
41.8714	0.000000
41.8821	0.000000
41.8929	0.000000
41.9036	0.000000
41.9143	0.000000
41.925	0.000000
41.9357	0.000000
41.9464	0.000000