File: Examples/Sin2Psi.uxd
;content of D:\DATA\Mayet\Lasseur\Test Mo-PF-38-43.raw - (Diffrac Plus V4 file)
_FILEVERSION = 3
_SAMPLE
_+SAMPLE
_USER = Lab Manager
_GONIOMETER_CODE = 20
_STAGE_CODE = 4
; Goniometer : D8 theta/2theta, stage : Open eulerian craddle
_SAMPLE_CHANGER_CODE = 0
_ATTACHMENTS_CODE = 0
_GONIOMETER_RADIUS = 390
_FIXED_DETSLIT = 0
_MONOCHROMATOR = 0
; Incident beam monochromator : None
_BETA_FILTER = N
_ANALYZER_CODE = 0
; Received beam analyzer : None
_DATEMEASURED = 22-Apr-2016 12:35:27
_RUNTIME = 79.4536
_WL_UNIT = A
_WL1 = 1.5406
_WL2 = 1.54439
_WL3 = 1.39222
_WLRATIO = 0.5
_ANODE = Cu
_V4_INF_USER = Lab Manager
_V4_INF_CREATOR = V5Converter
_V4_INF_CREATOR_VERSION = 3.3.50.0

; Data for range 1
_DRIVE = COUPLED
_STEPTIME = 220.8
_STEPSIZE = 0.02
_STEPMODE = C
_START = 38
_THETA = 19
_2THETA = 38
_KHI = 0
_PHI = 0
_X = 1.99998
_Y = 0.00002
_Z = 0.265
_DETECTORSLIT = out
_AUX1 = 0
_AUX2 = 0
_TIMESTARTED = 0
_KV = 40
_MA = 40
_RANGE_WL = 1.5406
_3DPLANE = 0
_V4_PSD2THETA = 9999
_V4_PSDCHANNEL1 = 0
_V4_PSDAPERTURE = 2.057142
_V4_PSDTYPE = 5
_V4_PSDFIXED = 0
_V4_TEMPCONTROL = 0
_V4_TEMPSTAGE = 0
_V4_TEMPSENSOR = 0
_V4_TEMPERATURE = 303.15
_V4_TEMPRATE = 0
_V4_TEMPDELAY = 0
_V4_TEMPRAMPFLAG = 0
_V4_COUNTERS_MASK = 1
_V4_DRIVES_MASK = 0
_V4_ENCODERS_MASK = 0
_2THETACOUNTS = 1
; 2THETA	Cnt2_D1
38	306
38.02	325
38.04	321
38.06	302
38.08	288
38.1	317
38.12	304
38.14	323
38.16	322
38.18	278
38.2	305
38.22	320
38.24	300
38.26	292
38.28	301
38.3	281
38.32	284
38.34	329
38.36	304
38.38	333
38.4	340
38.42	336
38.44	305
38.46	317
38.48	333
38.5	286
38.52	341
38.54	310
38.56	334
38.58	303
38.6	295
38.62	345
38.64	305
38.66	334
38.68	290
38.7	320
38.72	316
38.74	320
38.76	289
38.78	315
38.8	329
38.82	345
38.84	343
38.86	335
38.88	323
38.9	350
38.92	317
38.94	322
38.96	334
38.98	324
39	310
39.02	343
39.04	324
39.06	364
39.08	347
39.1	386
39.12	386
39.14	333
39.16	346
39.18	305
39.2	377
39.22	403
39.24	402
39.26	414
39.28	363
39.3	383
39.32	420
39.34	385
39.36	351
39.38	353
39.4	388
39.42	392
39.44	388
39.46	382
39.48	366
39.5	393
39.52	394
39.54	388
39.56	410
39.58	435
39.6	410
39.62	387
39.64	412
39.66	389
39.68	413
39.7	435
39.72	433
39.74	415
39.76	469
39.78	461
39.8	436
39.82	430
39.84	421
39.86	447
39.88	484
39.9	457
39.92	491
39.94	451
39.96	498
39.98	496
40	525
40.02	538
40.04	476
40.06	518
40.08	553
40.1	553
40.12	618
40.14	638
40.16	660
40.18	660
40.2	773
40.22	871
40.24	915
40.26	922
40.28	1108
40.3	1276
40.32	1537
40.34	1978
40.36	2351
40.38	3173
40.4	4112
40.42	5528
40.44	7305
40.46	8814
40.48	10044
40.5	11420
40.52	12017
40.54	12127
40.56	11557
40.58	10677
40.6	9526
40.62	8258
40.64	7041
40.66	5906
40.68	4823
40.7	3723
40.72	2813
40.74	2227
40.76	1729
40.78	1362
40.8	1113
40.82	1078
40.84	955
40.86	820
40.88	806
40.9	712
40.92	691
40.94	696
40.96	633
40.98	581
41	578
41.02	599
41.04	556
41.06	609
41.08	546
41.1	534
41.12	484
41.14	508
41.16	596
41.18	523
41.2	496
41.22	525
41.24	487
41.26	501
41.28	508
41.3	501
41.32	494
41.34	504
41.36	539
41.38	521
41.4	549
41.42	495
41.44	525
41.46	491
41.48	501
41.5	448
41.52	466
41.54	526
41.56	508
41.58	473
41.6	458
41.62	434
41.64	530
41.66	521
41.68	498
41.7	535
41.72	530
41.74	514
41.76	537
41.78	487
41.8	492
41.82	566
41.84	539
41.86	523
41.88	463
41.9	513
41.92	512
41.94	536
41.96	498
41.98	525
42	518
42.02	482
42.04	482
42.06	509
42.08	531
42.1	526
42.12	499
42.14	520
42.16	548
42.18	551
42.2	512
42.22	562
42.24	509
42.26	540
42.28	559
42.3	517
42.32	507
42.34	544
42.36	524
42.38	522
42.4	577
42.42	518
42.44	493
42.46	526
42.48	542
42.5	599
42.52	522
42.54	524
42.56	560
42.58	545
42.6	566
42.62	549
42.64	518
42.66	545
42.68	526
42.7	601
42.72	538
42.74	531
42.76	542
42.78	502
42.8	505
42.82	527
42.84	581
42.86	574
42.88	538
42.9	549
42.92	543
42.94	552
42.96	553
42.98	540
43	546

; Data for range 2
_DRIVE = COUPLED
_STEPTIME = 220.8
_STEPSIZE = 0.02
_STEPMODE = C
_START = 38
_THETA = 19
_2THETA = 38
_KHI = 10
_PHI = 0
_X = 1.99998
_Y = 0.00002
_Z = 0.265
_DETECTORSLIT = out
_AUX1 = 0
_AUX2 = 0
_TIMESTARTED = 451.0436
_KV = 40
_MA = 40
_RANGE_WL = 1.5406
_3DPLANE = 0
_V4_PSD2THETA = 9999
_V4_PSDCHANNEL1 = 0
_V4_PSDAPERTURE = 2.057142
_V4_PSDTYPE = 5
_V4_PSDFIXED = 0
_V4_TEMPCONTROL = 0
_V4_TEMPSTAGE = 0
_V4_TEMPSENSOR = 0
_V4_TEMPERATURE = 303.15
_V4_TEMPRATE = 0
_V4_TEMPDELAY = 0
_V4_TEMPRAMPFLAG = 0
_V4_COUNTERS_MASK = 1
_V4_DRIVES_MASK = 0
_V4_ENCODERS_MASK = 0
_2THETACOUNTS = 1
; 2THETA	Cnt2_D1
38	314
38.02	313
38.04	284
38.06	309
38.08	294
38.1	310
38.12	326
38.14	300
38.16	309
38.18	291
38.2	309
38.22	308
38.24	313
38.26	321
38.28	286
38.3	323
38.32	325
38.34	297
38.36	315
38.38	312
38.4	294
38.42	299
38.44	307
38.46	299
38.48	327
38.5	298
38.52	269
38.54	333
38.56	313
38.58	322
38.6	329
38.62	326
38.64	288
38.66	320
38.68	298
38.7	317
38.72	312
38.74	313
38.76	288
38.78	301
38.8	326
38.82	302
38.84	302
38.86	308
38.88	297
38.9	346
38.92	327
38.94	307
38.96	317
38.98	365
39	369
39.02	328
39.04	334
39.06	376
39.08	378
39.1	379
39.12	374
39.14	328
39.16	371
39.18	356
39.2	352
39.22	362
39.24	367
39.26	373
39.28	372
39.3	418
39.32	406
39.34	424
39.36	397
39.38	364
39.4	414
39.42	391
39.44	369
39.46	416
39.48	385
39.5	404
39.52	423
39.54	373
39.56	403
39.58	399
39.6	403
39.62	419
39.64	357
39.66	417
39.68	428
39.7	427
39.72	462
39.74	502
39.76	418
39.78	441
39.8	435
39.82	409
39.84	486
39.86	475
39.88	457
39.9	480
39.92	490
39.94	457
39.96	515
39.98	501
40	498
40.02	568
40.04	551
40.06	667
40.08	652
40.1	641
40.12	690
40.14	704
40.16	788
40.18	834
40.2	842
40.22	915
40.24	949
40.26	1076
40.28	1305
40.3	1416
40.32	1641
40.34	2022
40.36	2529
40.38	3199
40.4	4483
40.42	5809
40.44	7499
40.46	8889
40.48	10009
40.5	11145
40.52	11355
40.54	11513
40.56	11139
40.58	10113
40.6	9270
40.62	8085
40.64	7082
40.66	5744
40.68	4805
40.7	3797
40.72	3014
40.74	2366
40.76	1889
40.78	1545
40.8	1336
40.82	1168
40.84	1025
40.86	942
40.88	826
40.9	791
40.92	766
40.94	677
40.96	630
40.98	621
41	644
41.02	557
41.04	608
41.06	586
41.08	570
41.1	572
41.12	528
41.14	521
41.16	522
41.18	517
41.2	489
41.22	524
41.24	547
41.26	517
41.28	517
41.3	484
41.32	528
41.34	533
41.36	523
41.38	491
41.4	491
41.42	493
41.44	473
41.46	481
41.48	516
41.5	523
41.52	513
41.54	464
41.56	466
41.58	500
41.6	511
41.62	524
41.64	501
41.66	508
41.68	480
41.7	510
41.72	535
41.74	518
41.76	501
41.78	482
41.8	518
41.82	517
41.84	534
41.86	463
41.88	518
41.9	485
41.92	459
41.94	473
41.96	513
41.98	500
42	472
42.02	493
42.04	522
42.06	495
42.08	479
42.1	532
42.12	530
42.14	545
42.16	535
42.18	522
42.2	510
42.22	565
42.24	542
42.26	497
42.28	505
42.3	514
42.32	511
42.34	495
42.36	516
42.38	487
42.4	555
42.42	528
42.44	524
42.46	496
42.48	559
42.5	551
42.52	525
42.54	557
42.56	559
42.58	506
42.6	524
42.62	541
42.64	549
42.66	493
42.68	512
42.7	527
42.72	549
42.74	544
42.76	561
42.78	560
42.8	536
42.82	543
42.84	523
42.86	523
42.88	558
42.9	543
42.92	563
42.94	536
42.96	566
42.98	504
43	549

; Data for range 3
_DRIVE = COUPLED
_STEPTIME = 220.8
_STEPSIZE = 0.02
_STEPMODE = C
_START = 38
_THETA = 19
_2THETA = 38
_KHI = 20
_PHI = 0
_X = 1.99998
_Y = 0.00002
_Z = 0.265
_DETECTORSLIT = out
_AUX1 = 0
_AUX2 = 0
_TIMESTARTED = 891.1204
_KV = 40
_MA = 40
_RANGE_WL = 1.5406
_3DPLANE = 0
_V4_PSD2THETA = 9999
_V4_PSDCHANNEL1 = 0
_V4_PSDAPERTURE = 2.057142
_V4_PSDTYPE = 5
_V4_PSDFIXED = 0
_V4_TEMPCONTROL = 0
_V4_TEMPSTAGE = 0
_V4_TEMPSENSOR = 0
_V4_TEMPERATURE = 303.15
_V4_TEMPRATE = 0
_V4_TEMPDELAY = 0
_V4_TEMPRAMPFLAG = 0
_V4_COUNTERS_MASK = 1
_V4_DRIVES_MASK = 0
_V4_ENCODERS_MASK = 0
_2THETACOUNTS = 1
; 2THETA	Cnt2_D1
38	264
38.02	292
38.04	307
38.06	301
38.08	312
38.1	300
38.12	278
38.14	312
38.16	277
38.18	282
38.2	277
38.22	307
38.24	337
38.26	287
38.28	308
38.3	314
38.32	315
38.34	293
38.36	298
38.38	299
38.4	317
38.42	285
38.44	315
38.46	326
38.48	329
38.5	295
38.52	306
38.54	303
38.56	310
38.58	323
38.6	299
38.62	307
38.64	298
38.66	316
38.68	316
38.7	302
38.72	296
38.74	251
38.76	318
38.78	324
38.8	339
38.82	292
38.84	338
38.86	304
38.88	329
38.9	321
38.92	276
38.94	316
38.96	301
38.98	300
39	360
39.02	378
39.04	365
39.06	358
39.08	379
39.1	376
39.12	364
39.14	369
39.16	394
39.18	377
39.2	403
39.22	367
39.24	374
39.26	395
39.28	367
39.3	347
39.32	371
39.34	381
39.36	398
39.38	404
39.4	404
39.42	384
39.44	368
39.46	408
39.48	412
39.5	378
39.52	355
39.54	404
39.56	422
39.58	462
39.6	430
39.62	414
39.64	452
39.66	437
39.68	438
39.7	429
39.72	434
39.74	436
39.76	478
39.78	464
39.8	483
39.82	448
39.84	536
39.86	547
39.88	481
39.9	502
39.92	605
39.94	573
39.96	551
39.98	579
40	587
40.02	587
40.04	642
40.06	581
40.08	591
40.1	721
40.12	698
40.14	721
40.16	764
40.18	798
40.2	839
40.22	958
40.24	1031
40.26	1144
40.28	1284
40.3	1548
40.32	1807
40.34	2224
40.36	2945
40.38	3785
40.4	4868
40.42	6087
40.44	7258
40.46	8386
40.48	9565
40.5	9968
40.52	10585
40.54	10556
40.56	10283
40.58	9514
40.6	8697
40.62	7386
40.64	6568
40.66	5616
40.68	4584
40.7	3739
40.72	3019
40.74	2511
40.76	1949
40.78	1728
40.8	1398
40.82	1264
40.84	1163
40.86	1050
40.88	951
40.9	901
40.92	833
40.94	829
40.96	746
40.98	767
41	670
41.02	632
41.04	663
41.06	608
41.08	633
41.1	622
41.12	605
41.14	584
41.16	584
41.18	526
41.2	509
41.22	453
41.24	502
41.26	506
41.28	547
41.3	513
41.32	470
41.34	497
41.36	523
41.38	489
41.4	503
41.42	493
41.44	518
41.46	459
41.48	456
41.5	501
41.52	538
41.54	540
41.56	474
41.58	508
41.6	497
41.62	533
41.64	523
41.66	441
41.68	501
41.7	516
41.72	501
41.74	493
41.76	493
41.78	508
41.8	525
41.82	493
41.84	465
41.86	506
41.88	478
41.9	526
41.92	500
41.94	516
41.96	512
41.98	505
42	522
42.02	533
42.04	507
42.06	555
42.08	487
42.1	549
42.12	500
42.14	531
42.16	508
42.18	459
42.2	570
42.22	512
42.24	499
42.26	520
42.28	518
42.3	534
42.32	553
42.34	494
42.36	487
42.38	492
42.4	498
42.42	490
42.44	540
42.46	546
42.48	514
42.5	519
42.52	561
42.54	531
42.56	532
42.58	539
42.6	538
42.62	494
42.64	532
42.66	556
42.68	519
42.7	483
42.72	508
42.74	541
42.76	536
42.78	538
42.8	553
42.82	536
42.84	550
42.86	513
42.88	584
42.9	525
42.92	548
42.94	528
42.96	519
42.98	546
43	553

; Data for range 4
_DRIVE = COUPLED
_STEPTIME = 220.8
_STEPSIZE = 0.02
_STEPMODE = C
_START = 38
_THETA = 19
_2THETA = 38
_KHI = 30
_PHI = 0
_X = 1.99998
_Y = 0.00002
_Z = 0.265
_DETECTORSLIT = out
_AUX1 = 0
_AUX2 = 0
_TIMESTARTED = 1331.182
_KV = 40
_MA = 40
_RANGE_WL = 1.5406
_3DPLANE = 0
_V4_PSD2THETA = 9999
_V4_PSDCHANNEL1 = 0
_V4_PSDAPERTURE = 2.057142
_V4_PSDTYPE = 5
_V4_PSDFIXED = 0
_V4_TEMPCONTROL = 0
_V4_TEMPSTAGE = 0
_V4_TEMPSENSOR = 0
_V4_TEMPERATURE = 303.15
_V4_TEMPRATE = 0
_V4_TEMPDELAY = 0
_V4_TEMPRAMPFLAG = 0
_V4_COUNTERS_MASK = 1
_V4_DRIVES_MASK = 0
_V4_ENCODERS_MASK = 0
_2THETACOUNTS = 1
; 2THETA	Cnt2_D1
38	279
38.02	320
38.04	292
38.06	301
38.08	282
38.1	330
38.12	333
38.14	306
38.16	278
38.18	294
38.2	285
38.22	277
38.24	295
38.26	285
38.28	302
38.3	278
38.32	284
38.34	296
38.36	262
38.38	290
38.4	329
38.42	297
38.44	274
38.46	279
38.48	289
38.5	272
38.52	317
38.54	282
38.56	326
38.58	288
38.6	293
38.62	324
38.64	294
38.66	315
38.68	319
38.7	298
38.72	305
38.74	305
38.76	291
38.78	290
38.8	315
38.82	293
38.84	267
38.86	258
38.88	328
38.9	303
38.92	327
38.94	301
38.96	338
38.98	290
39	350
39.02	319
39.04	319
39.06	329
39.08	354
39.1	352
39.12	338
39.14	359
39.16	360
39.18	370
39.2	395
39.22	435
39.24	340
39.26	369
39.28	368
39.3	390
39.32	374
39.34	382
39.36	371
39.38	396
39.4	363
39.42	367
39.44	388
39.46	402
39.48	438
39.5	403
39.52	415
39.54	424
39.56	422
39.58	423
39.6	465
39.62	466
39.64	410
39.66	432
39.68	475
39.7	403
39.72	472
39.74	484
39.76	440
39.78	462
39.8	438
39.82	493
39.84	467
39.86	472
39.88	476
39.9	526
39.92	488
39.94	509
39.96	520
39.98	530
40	570
40.02	523
40.04	572
40.06	612
40.08	626
40.1	596
40.12	617
40.14	708
40.16	755
40.18	802
40.2	838
40.22	940
40.24	1057
40.26	1217
40.28	1430
40.3	1832
40.32	2377
40.34	2929
40.36	3713
40.38	4533
40.4	5375
40.42	6158
40.44	6917
40.46	7724
40.48	8250
40.5	8684
40.52	9119
40.54	8786
40.56	8621
40.58	8197
40.6	7533
40.62	6929
40.64	6086
40.66	5169
40.68	4482
40.7	3701
40.72	3107
40.74	2570
40.76	2062
40.78	1765
40.8	1444
40.82	1243
40.84	1170
40.86	941
40.88	920
40.9	841
40.92	840
40.94	787
40.96	770
40.98	833
41	729
41.02	727
41.04	708
41.06	692
41.08	666
41.1	682
41.12	596
41.14	621
41.16	620
41.18	598
41.2	610
41.22	603
41.24	603
41.26	542
41.28	574
41.3	539
41.32	554
41.34	564
41.36	558
41.38	541
41.4	479
41.42	522
41.44	550
41.46	529
41.48	481
41.5	523
41.52	544
41.54	512
41.56	486
41.58	533
41.6	504
41.62	506
41.64	458
41.66	469
41.68	513
41.7	505
41.72	485
41.74	517
41.76	497
41.78	560
41.8	507
41.82	520
41.84	473
41.86	480
41.88	472
41.9	484
41.92	465
41.94	473
41.96	529
41.98	471
42	490
42.02	493
42.04	498
42.06	483
42.08	512
42.1	546
42.12	512
42.14	494
42.16	494
42.18	489
42.2	463
42.22	486
42.24	482
42.26	514
42.28	497
42.3	518
42.32	526
42.34	531
42.36	503
42.38	509
42.4	559
42.42	509
42.44	518
42.46	538
42.48	531
42.5	516
42.52	518
42.54	502
42.56	481
42.58	540
42.6	546
42.62	479
42.64	565
42.66	523
42.68	520
42.7	558
42.72	589
42.74	547
42.76	522
42.78	507
42.8	520
42.82	546
42.84	526
42.86	536
42.88	554
42.9	532
42.92	499
42.94	532
42.96	565
42.98	574
43	538

; Data for range 5
_DRIVE = COUPLED
_STEPTIME = 220.8
_STEPSIZE = 0.02
_STEPMODE = C
_START = 38
_THETA = 19
_2THETA = 38
_KHI = 40
_PHI = 0
_X = 1.99998
_Y = 0.00002
_Z = 0.265
_DETECTORSLIT = out
_AUX1 = 0
_AUX2 = 0
_TIMESTARTED = 1771.024
_KV = 40
_MA = 40
_RANGE_WL = 1.5406
_3DPLANE = 0
_V4_PSD2THETA = 9999
_V4_PSDCHANNEL1 = 0
_V4_PSDAPERTURE = 2.057142
_V4_PSDTYPE = 5
_V4_PSDFIXED = 0
_V4_TEMPCONTROL = 0
_V4_TEMPSTAGE = 0
_V4_TEMPSENSOR = 0
_V4_TEMPERATURE = 303.15
_V4_TEMPRATE = 0
_V4_TEMPDELAY = 0
_V4_TEMPRAMPFLAG = 0
_V4_COUNTERS_MASK = 1
_V4_DRIVES_MASK = 0
_V4_ENCODERS_MASK = 0
_2THETACOUNTS = 1
; 2THETA	Cnt2_D1
38	311
38.02	291
38.04	294
38.06	307
38.08	312
38.1	294
38.12	277
38.14	265
38.16	307
38.18	272
38.2	308
38.22	294
38.24	288
38.26	279
38.28	282
38.3	287
38.32	291
38.34	317
38.36	326
38.38	289
38.4	311
38.42	309
38.44	306
38.46	291
38.48	260
38.5	270
38.52	293
38.54	281
38.56	290
38.58	297
38.6	318
38.62	274
38.64	286
38.66	262
38.68	292
38.7	296
38.72	320
38.74	266
38.76	296
38.78	284
38.8	326
38.82	319
38.84	315
38.86	293
38.88	323
38.9	354
38.92	304
38.94	322
38.96	315
38.98	326
39	320
39.02	302
39.04	357
39.06	338
39.08	318
39.1	343
39.12	361
39.14	327
39.16	384
39.18	337
39.2	375
39.22	399
39.24	358
39.26	369
39.28	336
39.3	325
39.32	358
39.34	373
39.36	353
39.38	360
39.4	389
39.42	395
39.44	403
39.46	329
39.48	414
39.5	354
39.52	415
39.54	416
39.56	394
39.58	402
39.6	425
39.62	385
39.64	399
39.66	399
39.68	433
39.7	441
39.72	395
39.74	419
39.76	457
39.78	463
39.8	435
39.82	456
39.84	475
39.86	478
39.88	501
39.9	509
39.92	478
39.94	543
39.96	503
39.98	503
40	526
40.02	609
40.04	581
40.06	608
40.08	621
40.1	673
40.12	712
40.14	767
40.16	843
40.18	894
40.2	1002
40.22	1228
40.24	1418
40.26	1719
40.28	2204
40.3	2558
40.32	3033
40.34	3380
40.36	4134
40.38	4528
40.4	4999
40.42	5593
40.44	6043
40.46	6279
40.48	6581
40.5	6922
40.52	7001
40.54	7074
40.56	7033
40.58	6867
40.6	6546
40.62	6158
40.64	5601
40.66	5208
40.68	4699
40.7	4072
40.72	3558
40.74	3034
40.76	2538
40.78	2170
40.8	1869
40.82	1412
40.84	1182
40.86	1091
40.88	954
40.9	839
40.92	820
40.94	782
40.96	731
40.98	708
41	667
41.02	687
41.04	644
41.06	675
41.08	604
41.1	629
41.12	634
41.14	573
41.16	611
41.18	600
41.2	611
41.22	618
41.24	570
41.26	610
41.28	560
41.3	602
41.32	558
41.34	566
41.36	512
41.38	525
41.4	532
41.42	498
41.44	511
41.46	551
41.48	508
41.5	526
41.52	514
41.54	494
41.56	515
41.58	492
41.6	512
41.62	526
41.64	500
41.66	480
41.68	515
41.7	457
41.72	492
41.74	537
41.76	506
41.78	471
41.8	496
41.82	479
41.84	473
41.86	456
41.88	551
41.9	489
41.92	463
41.94	483
41.96	496
41.98	541
42	492
42.02	478
42.04	493
42.06	470
42.08	470
42.1	507
42.12	510
42.14	487
42.16	479
42.18	471
42.2	545
42.22	501
42.24	508
42.26	493
42.28	499
42.3	497
42.32	465
42.34	477
42.36	503
42.38	469
42.4	496
42.42	496
42.44	494
42.46	503
42.48	546
42.5	500
42.52	543
42.54	502
42.56	547
42.58	513
42.6	534
42.62	503
42.64	528
42.66	528
42.68	545
42.7	543
42.72	536
42.74	550
42.76	543
42.78	485
42.8	564
42.82	564
42.84	546
42.86	591
42.88	511
42.9	516
42.92	549
42.94	569
42.96	505
42.98	582
43	532

; Data for range 6
_DRIVE = COUPLED
_STEPTIME = 220.8
_STEPSIZE = 0.02
_STEPMODE = C
_START = 38
_THETA = 19
_2THETA = 38
_KHI = 50
_PHI = 0
_X = 1.99998
_Y = 0.00002
_Z = 0.265
_DETECTORSLIT = out
_AUX1 = 0
_AUX2 = 0
_TIMESTARTED = 2210.773
_KV = 40
_MA = 40
_RANGE_WL = 1.5406
_3DPLANE = 0
_V4_PSD2THETA = 9999
_V4_PSDCHANNEL1 = 0
_V4_PSDAPERTURE = 2.057142
_V4_PSDTYPE = 5
_V4_PSDFIXED = 0
_V4_TEMPCONTROL = 0
_V4_TEMPSTAGE = 0
_V4_TEMPSENSOR = 0
_V4_TEMPERATURE = 303.15
_V4_TEMPRATE = 0
_V4_TEMPDELAY = 0
_V4_TEMPRAMPFLAG = 0
_V4_COUNTERS_MASK = 1
_V4_DRIVES_MASK = 0
_V4_ENCODERS_MASK = 0
_2THETACOUNTS = 1
; 2THETA	Cnt2_D1
38	272
38.02	263
38.04	242
38.06	292
38.08	289
38.1	264
38.12	253
38.14	226
38.16	263
38.18	295
38.2	267
38.22	284
38.24	238
38.26	247
38.28	274
38.3	277
38.32	276
38.34	272
38.36	270
38.38	264
38.4	269
38.42	280
38.44	280
38.46	281
38.48	312
38.5	278
38.52	280
38.54	278
38.56	280
38.58	286
38.6	260
38.62	286
38.64	278
38.66	287
38.68	322
38.7	334
38.72	283
38.74	297
38.76	297
38.78	290
38.8	301
38.82	316
38.84	305
38.86	285
38.88	273
38.9	301
38.92	292
38.94	282
[...]
38.08	271
38.1	302
38.12	266
38.14	293
38.16	265
38.18	271
38.2	298
38.22	276
38.24	255
38.26	269
38.28	258
38.3	262
38.32	248
38.34	283
38.36	290
38.38	276
38.4	274
38.42	261
38.44	269
38.46	261
38.48	293
38.5	282
38.52	265
38.54	281
38.56	292
38.58	236
38.6	262
38.62	292
38.64	279
38.66	270
38.68	269
38.7	323
38.72	259
38.74	302
38.76	289
38.78	302
38.8	289
38.82	279
38.84	311
38.86	268
38.88	291
38.9	295
38.92	294
38.94	297
38.96	275
38.98	278
39	296
39.02	282
39.04	267
39.06	311
39.08	305
39.1	316
39.12	313
39.14	312
39.16	333
39.18	318
39.2	299
39.22	330
39.24	329
39.26	302
39.28	349
39.3	312
39.32	321
39.34	315
39.36	334
39.38	302
39.4	347
39.42	319
39.44	362
39.46	344
39.48	331
39.5	385
39.52	359
39.54	401
39.56	343
39.58	354
39.6	378
39.62	399
39.64	372
39.66	392
39.68	357
39.7	377
39.72	418
39.74	405
39.76	372
39.78	423
39.8	436
39.82	408
39.84	434
39.86	464
39.88	435
39.9	443
39.92	490
39.94	568
39.96	590
39.98	635
40	682
40.02	823
40.04	878
40.06	1044
40.08	1218
40.1	1299
40.12	1535
40.14	1643
40.16	1812
40.18	1967
40.2	2230
40.22	2371
40.24	2461
40.26	2587
40.28	2821
40.3	2878
40.32	2977
40.34	2994
40.36	3066
40.38	3232
40.4	3292
40.42	3481
40.44	3498
40.46	3463
40.48	3370
40.5	3489
40.52	3545
40.54	3614
40.56	3546
40.58	3558
40.6	3471
40.62	3481
40.64	3496
40.66	3440
40.68	3351
40.7	3284
40.72	3038
40.74	2979
40.76	2859
40.78	2657
40.8	2666
40.82	2380
40.84	2175
40.86	1874
40.88	1699
40.9	1484
40.92	1343
40.94	1302
40.96	1057
40.98	964
41	826
41.02	772
41.04	673
41.06	649
41.08	626
41.1	639
41.12	582
41.14	559
41.16	505
41.18	528
41.2	501
41.22	487
41.24	524
41.26	486
41.28	481
41.3	470
41.32	480
41.34	494
41.36	464
41.38	475
41.4	483
41.42	458
41.44	483
41.46	463
41.48	477
41.5	507
41.52	500
41.54	471
41.56	458
41.58	452
41.6	441
41.62	454
41.64	464
41.66	446
41.68	472
41.7	480
41.72	451
41.74	440
41.76	487
41.78	471
41.8	416
41.82	443
41.84	483
41.86	437
41.88	418
41.9	482
41.92	433
41.94	426
41.96	450
41.98	459
42	457
42.02	435
42.04	436
42.06	455
42.08	464
42.1	444
42.12	480
42.14	468
42.16	451
42.18	454
42.2	508
42.22	492
42.24	465
42.26	442
42.28	439
42.3	456
42.32	490
42.34	470
42.36	493
42.38	485
42.4	475
42.42	465
42.44	448
42.46	442
42.48	470
42.5	478
42.52	511
42.54	451
42.56	492
42.58	519
42.6	512
42.62	451
42.64	493
42.66	462
42.68	489
42.7	479
42.72	469
42.74	499
42.76	467
42.78	436
42.8	507
42.82	506
42.84	498
42.86	532
42.88	490
42.9	508
42.92	523
42.94	475
42.96	508
42.98	516
43	478

; Data for range 17
_DRIVE = COUPLED
_STEPTIME = 220.8
_STEPSIZE = 0.02
_STEPMODE = C
_START = 38
_THETA = 19
_2THETA = 38
_KHI = 70
_PHI = 90
_X = 1.99998
_Y = 0.00002
_Z = 0.265
_DETECTORSLIT = out
_AUX1 = 0
_AUX2 = 0
_TIMESTARTED = 7066.096
_KV = 40
_MA = 40
_RANGE_WL = 1.5406
_3DPLANE = 0
_V4_PSD2THETA = 9999
_V4_PSDCHANNEL1 = 0
_V4_PSDAPERTURE = 2.057142
_V4_PSDTYPE = 5
_V4_PSDFIXED = 0
_V4_TEMPCONTROL = 0
_V4_TEMPSTAGE = 0
_V4_TEMPSENSOR = 0
_V4_TEMPERATURE = 303.15
_V4_TEMPRATE = 0
_V4_TEMPDELAY = 0
_V4_TEMPRAMPFLAG = 0
_V4_COUNTERS_MASK = 1
_V4_DRIVES_MASK = 0
_V4_ENCODERS_MASK = 0
_2THETACOUNTS = 1
; 2THETA	Cnt2_D1
38	223
38.02	226
38.04	255
38.06	250
38.08	254
38.1	221
38.12	258
38.14	248
38.16	242
38.18	229
38.2	225
38.22	263
38.24	263
38.26	264
38.28	243
38.3	261
38.32	247
38.34	258
38.36	216
38.38	251
38.4	258
38.42	224
38.44	269
38.46	279
38.48	216
38.5	250
38.52	236
38.54	222
38.56	244
38.58	224
38.6	277
38.62	264
38.64	223
38.66	225
38.68	248
38.7	259
38.72	281
38.74	226
38.76	284
38.78	280
38.8	258
38.82	253
38.84	256
38.86	267
38.88	275
38.9	271
38.92	280
38.94	259
38.96	291
38.98	295
39	274
39.02	263
39.04	263
39.06	281
39.08	293
39.1	255
39.12	266
39.14	282
39.16	270
39.18	283
39.2	252
39.22	277
39.24	300
39.26	279
39.28	281
39.3	252
39.32	310
39.34	296
39.36	300
39.38	317
39.4	292
39.42	321
39.44	331
39.46	326
39.48	318
39.5	358
39.52	332
39.54	300
39.56	332
39.58	343
39.6	324
39.62	371
39.64	420
39.66	380
39.68	385
39.7	479
39.72	469
39.74	512
39.76	516
39.78	587
39.8	646
39.82	698
39.84	744
39.86	850
39.88	892
39.9	928
39.92	1027
39.94	1062
39.96	1124
39.98	1247
40	1236
40.02	1352
40.04	1376
40.06	1365
40.08	1449
40.1	1546
40.12	1517
40.14	1592
40.16	1679
40.18	1691
40.2	1748
40.22	1766
40.24	1834
40.26	1838
40.28	1941
40.3	1930
40.32	2002
40.34	1957
40.36	2046
40.38	2127
40.4	2117
40.42	2093
40.44	2032
40.46	2006
40.48	2035
40.5	2133
40.52	2066
40.54	2070
40.56	2095
40.58	2033
40.6	2044
40.62	2069
40.64	2032
40.66	2067
40.68	2097
40.7	2010
40.72	2031
40.74	1894
40.76	2023
40.78	1893
40.8	1901
40.82	1917
40.84	1886
40.86	1847
40.88	1763
40.9	1693
40.92	1624
40.94	1627
40.96	1542
40.98	1406
41	1401
41.02	1320
41.04	1170
41.06	1015
41.08	997
41.1	935
41.12	868
41.14	784
41.16	727
41.18	639
41.2	583
41.22	591
41.24	548
41.26	511
41.28	516
41.3	495
41.32	449
41.34	469
41.36	471
41.38	461
41.4	447
41.42	431
41.44	433
41.46	423
41.48	436
41.5	449
41.52	473
41.54	471
41.56	436
41.58	423
41.6	421
41.62	429
41.64	446
41.66	407
41.68	424
41.7	413
41.72	407
41.74	420
41.76	391
41.78	411
41.8	443
41.82	484
41.84	444
41.86	456
41.88	436
41.9	420
41.92	432
41.94	442
41.96	421
41.98	433
42	426
42.02	433
42.04	401
42.06	431
42.08	412
42.1	468
42.12	479
42.14	440
42.16	443
42.18	388
42.2	452
42.22	484
42.24	494
42.26	471
42.28	449
42.3	428
42.32	455
42.34	396
42.36	461
42.38	453
42.4	446
42.42	430
42.44	425
42.46	402
42.48	431
42.5	441
42.52	439
42.54	486
42.56	449
42.58	448
42.6	475
42.62	532
42.64	469
42.66	455
42.68	520
42.7	465
42.72	480
42.74	478
42.76	489
42.78	483
42.8	449
42.82	402
42.84	481
42.86	494
42.88	484
42.9	525
42.92	482
42.94	461
42.96	460
42.98	458
43	492

; Data for range 18
_DRIVE = COUPLED
_STEPTIME = 220.8
_STEPSIZE = 0.02
_STEPMODE = C
_START = 38
_THETA = 19
_2THETA = 38
_KHI = 80
_PHI = 90
_X = 1.99998
_Y = 0.00002
_Z = 0.265
_DETECTORSLIT = out
_AUX1 = 0
_AUX2 = 0
_TIMESTARTED = 7505.221
_KV = 40
_MA = 40
_RANGE_WL = 1.5406
_3DPLANE = 0
_V4_PSD2THETA = 9999
_V4_PSDCHANNEL1 = 0
_V4_PSDAPERTURE = 2.057142
_V4_PSDTYPE = 5
_V4_PSDFIXED = 0
_V4_TEMPCONTROL = 0
_V4_TEMPSTAGE = 0
_V4_TEMPSENSOR = 0
_V4_TEMPERATURE = 303.15
_V4_TEMPRATE = 0
_V4_TEMPDELAY = 0
_V4_TEMPRAMPFLAG = 0
_V4_COUNTERS_MASK = 1
_V4_DRIVES_MASK = 0
_V4_ENCODERS_MASK = 0
_2THETACOUNTS = 1
; 2THETA	Cnt2_D1
38	111
38.02	102
38.04	104
38.06	102
38.08	108
38.1	109
38.12	84
38.14	92
38.16	94
38.18	87
38.2	93
38.22	90
38.24	130
38.26	116
38.28	108
38.3	97
38.32	89
38.34	87
38.36	98
38.38	104
38.4	100
38.42	105
38.44	111
38.46	95
38.48	96
38.5	99
38.52	103
38.54	126
38.56	105
38.58	107
38.6	78
38.62	102
38.64	104
38.66	115
38.68	106
38.7	112
38.72	86
38.74	95
38.76	128
38.78	103
38.8	108
38.82	138
38.84	125
38.86	128
38.88	112
38.9	107
38.92	105
38.94	125
38.96	129
38.98	102
39	123
39.02	131
39.04	118
39.06	144
39.08	140
39.1	111
39.12	142
39.14	133
39.16	126
39.18	129
39.2	118
39.22	112
39.24	145
39.26	142
39.28	131
39.3	126
39.32	127
39.34	146
39.36	143
39.38	128
39.4	139
39.42	141
39.44	180
39.46	151
39.48	161
39.5	145
39.52	127
39.54	169
39.56	176
39.58	170
39.6	168
39.62	175
39.64	160
39.66	180
39.68	179
39.7	183
39.72	187
39.74	195
39.76	194
39.78	226
39.8	230
39.82	224
39.84	220
39.86	241
39.88	271
39.9	304
39.92	296
39.94	307
39.96	338
39.98	317
40	310
40.02	373
40.04	379
40.06	336
40.08	381
40.1	436
40.12	426
40.14	417
40.16	459
40.18	467
40.2	491
40.22	493
40.24	510
40.26	518
40.28	508
40.3	548
40.32	587
40.34	597
40.36	582
40.38	621
40.4	668
40.42	599
40.44	578
40.46	642
40.48	659
40.5	651
40.52	665
40.54	707
40.56	700
40.58	681
40.6	703
40.62	674
40.64	710
40.66	735
40.68	714
40.7	721
40.72	757
40.74	741
40.76	758
40.78	778
40.8	767
40.82	813
40.84	752
40.86	763
40.88	722
40.9	748
40.92	706
40.94	735
40.96	771
40.98	687
41	693
41.02	737
41.04	678
41.06	673
41.08	702
41.1	648
41.12	623
41.14	622
41.16	647
41.18	553
41.2	614
41.22	485
41.24	513
41.26	516
41.28	491
41.3	441
41.32	460
41.34	405
41.36	425
41.38	410
41.4	387
41.42	353
41.44	408
41.46	351
41.48	357
41.5	339
41.52	309
41.54	316
41.56	302
41.58	303
41.6	317
41.62	336
41.64	306
41.66	302
41.68	316
41.7	302
41.72	317
41.74	337
41.76	265
41.78	297
41.8	308
41.82	310
41.84	302
41.86	296
41.88	280
41.9	265
41.92	300
41.94	279
41.96	289
41.98	344
42	332
42.02	310
42.04	290
42.06	318
42.08	311
42.1	331
42.12	337
42.14	320
42.16	314
42.18	332
42.2	345
42.22	326
42.24	309
42.26	315
42.28	311
42.3	305
42.32	328
42.34	324
42.36	294
42.38	351
42.4	357
42.42	355
42.44	371
42.46	299
42.48	369
42.5	322
42.52	378
42.54	347
42.56	360
42.58	346
42.6	357
42.62	376
42.64	378
42.66	394
42.68	349
42.7	346
42.72	373
42.74	381
42.76	347
42.78	351
42.8	381
42.82	350
42.84	352
42.86	331
42.88	358
42.9	360
42.92	389
42.94	406
42.96	364
42.98	383
43	392