File: Examples/Temperature.uxd
;content of D:\DATA\V_Thery\manip four\TiO2(001)\C5-100nm\parall faisc\TiO2(001)-40-100.raw - (Diffrac Plus V4 file)
_FILEVERSION = 3
_SAMPLE
_+SAMPLE
_USER = Lab Manager
_GONIOMETER_CODE = 20
_STAGE_CODE = 4
; Goniometer : D8 theta/2theta, stage : Open eulerian craddle
_SAMPLE_CHANGER_CODE = 0
_ATTACHMENTS_CODE = 0
_GONIOMETER_RADIUS = 390
_FIXED_DETSLIT = 0
_MONOCHROMATOR = 0
; Incident beam monochromator : None
_BETA_FILTER = N
_ANALYZER_CODE = 0
; Received beam analyzer : None
_DATEMEASURED = 10-Feb-2016 17:25:12
_RUNTIME = 45.15763
_WL_UNIT = A
_WL1 = 1.5406
_WL2 = 1.54439
_WL3 = 1.39222
_WLRATIO = 0.5
_ANODE = Cu
_V4_INF_USER = Lab Manager
_V4_INF_CREATOR = V5Converter
_V4_INF_CREATOR_VERSION = 3.3.50.0

; Data for range 1
_DRIVE = COUPLED
_STEPTIME = 19.2
_STEPSIZE = 0.01
_STEPMODE = C
_START = 61.5
_THETA = 30.75
_2THETA = 61.5
_KHI = -0.169602
_PHI = 0.000039
_X = 0.917012
_Y = -0.570996
_Z = 1.479004
_DETECTORSLIT = out
_AUX1 = 0
_AUX2 = -2.4
_DELAY = 120
_TIMESTARTED = 0
_KV = 40
_MA = 40
_RANGE_WL = 1.5406
_3DPLANE = 0
_V4_PSD2THETA = 9999
_V4_PSDCHANNEL1 = 0
_V4_PSDAPERTURE = 2.057142
_V4_PSDTYPE = 5
_V4_PSDFIXED = 0
_V4_TEMPCONTROL = 0
_V4_TEMPSTAGE = 0
_V4_TEMPSENSOR = 0
_V4_TEMPERATURE = 313.6949
_V4_TEMPRATE = 0
_V4_TEMPDELAY = 0
_V4_TEMPRAMPFLAG = 0
_V4_COUNTERS_MASK = 1
_V4_DRIVES_MASK = 0
_V4_ENCODERS_MASK = 0
_2THETACOUNTS = 1
; 2THETA	Cnt2_D1
61.5	7.000000
61.52	10
61.54	11
61.56	11
61.58	11
61.6	9.000000
61.62	12
61.64	10
61.66	13
61.68	8.000000
61.7	11
61.72	8.000000
61.74	12
61.76	9.000000
61.78	16
61.8	19
61.82	21
61.84	10
61.86	22
61.88	14
61.9	30
61.92	24
61.94	24
61.96	39
61.98	34
62	33
62.02	26
62.04	29
62.06	35
62.08	41
62.1	50
62.12	54
62.14	49
62.16	41
62.18	50
62.2	58
62.22	68
62.24	71
62.26	78
62.28	92
62.3	95
62.32	100
62.34	117
62.36	122
62.38	168
62.4	163
62.42	173
62.44	233
62.46	248
62.48	281
62.5	321
62.52	411
62.54	520
62.56	676
62.58	861
62.6	1066
62.62	1499
62.64	2164
62.66	3573
62.68	6847
62.7	20762
62.72	104869
62.74	207007
62.76	116891
62.78	26277
62.8	7052
62.82	3226
62.84	2006
62.86	1384
62.88	1058
62.9	891
62.92	604
62.94	428
62.96	328
62.98	298
63	218
63.02	205
63.04	166
63.06	153
63.08	144
63.1	109
63.12	112
63.14	108
63.16	100
63.18	94
63.2	68
63.22	75
63.24	67
63.26	52
63.28	62
63.3	62
63.32	58
63.34	50
63.36	40
63.38	28
63.4	36
63.42	43
63.44	33
63.46	29
63.48	38
63.5	37
63.52	34
63.54	23
63.56	27
63.58	14
63.6	21
63.62	25
63.64	24
63.66	22
63.68	24
63.7	19
63.72	21
63.74	10
63.76	16
63.78	19
63.8	20
63.82	12
63.84	20
63.86	13
63.88	18
63.9	17
63.92	20
63.94	14
63.96	18
63.98	12
64	26
64.02	17
64.04	13
64.06	15
64.08	23
64.1	34
64.12	12
64.14	18
64.16	22
64.18	20
64.2	25
64.22	14
64.24	17
64.26	28
64.28	36
64.3	27
64.32	27
64.34	31
64.36	27
64.38	30
64.4	51
64.42	25
64.44	39
64.46	39
64.48	48
64.5	60
64.52	66
64.54	72
64.56	82
64.58	115
64.6	141
64.62	141
64.64	180
64.66	221
64.68	281
64.7	354
64.72	353
64.74	426
64.76	504
64.78	614
64.8	678
64.82	834
64.84	1006
64.86	1194
64.88	1356
64.9	1554
64.92	1750
64.94	1828
64.96	1824
64.98	1743
65	1565
65.02	1313
65.04	1056
65.06	833
65.08	698
65.1	462
65.12	403
65.14	320
65.16	250
65.18	169
65.2	144
65.22	135
65.24	91
65.26	79
65.28	66
65.3	78
65.32	50
65.34	46
65.36	41
65.38	27
65.4	30
65.42	27
65.44	24
65.46	23
65.48	20
65.5	28
65.52	21
65.54	17
65.56	18
65.58	21
65.6	8.000000
65.62	14
65.64	17
65.66	16
65.68	16
65.7	37
65.72	19
65.74	54
65.76	57
65.78	121
65.8	148
65.82	183
65.84	279
65.86	277
65.88	321
65.9	286
65.92	175
65.94	107
65.96	51
65.98	21
66	15
66.02	16
66.04	12
66.06	7.000000
66.08	1.000000
66.1	9.000000
66.12	8.000000
66.14	11
66.16	14
66.18	7.000000
66.2	4.000000
66.22	2.000000
66.24	4.000000
66.26	9.000000
66.28	9.000000
66.3	4.000000
66.32	8.000000
66.34	5.000000
66.36	4.000000
66.38	7.000000
66.4	5.000000
66.42	11
66.44	3.000000
66.46	7.000000
66.48	6.000000
66.5	2.000000

; Data for range 2
_DRIVE = COUPLED
_STEPTIME = 19.2
_STEPSIZE = 0.01
_STEPMODE = C
_START = 61.5
_THETA = 30.75
_2THETA = 61.5
_KHI = -0.169602
_PHI = 0.000039
_X = 0.917012
_Y = -0.570996
_Z = 1.479004
_DETECTORSLIT = out
_AUX1 = 0
_AUX2 = -2.4
_DELAY = 120
_TIMESTARTED = 206.8644
_KV = 40
_MA = 40
_RANGE_WL = 1.5406
_3DPLANE = 0
_V4_PSD2THETA = 9999
_V4_PSDCHANNEL1 = 0
_V4_PSDAPERTURE = 2.057142
_V4_PSDTYPE = 5
_V4_PSDFIXED = 0
_V4_TEMPCONTROL = 0
_V4_TEMPSTAGE = 0
_V4_TEMPSENSOR = 0
_V4_TEMPERATURE = 318.5273
_V4_TEMPRATE = 0
_V4_TEMPDELAY = 0
_V4_TEMPRAMPFLAG = 0
_V4_COUNTERS_MASK = 1
_V4_DRIVES_MASK = 0
_V4_ENCODERS_MASK = 0
_2THETACOUNTS = 1
; 2THETA	Cnt2_D1
61.5	8.000000
61.52	9.000000
61.54	12
61.56	7.000000
61.58	12
61.6	12
61.62	9.000000
61.64	13
61.66	13
61.68	11
61.7	14
61.72	14
61.74	19
61.76	16
61.78	18
61.8	10
61.82	19
61.84	18
61.86	19
61.88	24
61.9	23
61.92	27
61.94	31
61.96	36
61.98	29
62	35
62.02	42
62.04	39
62.06	30
62.08	30
62.1	28
62.12	47
62.14	48
62.16	48
62.18	61
62.2	64
62.22	63
62.24	78
62.26	62
62.28	89
62.3	104
62.32	112
62.34	103
62.36	149
62.38	158
62.4	165
62.42	184
62.44	227
62.46	258
62.48	320
62.5	371
62.52	421
62.54	559
62.56	644
62.58	904
62.6	1128
62.62	1561
62.64	2366
62.66	3865
62.68	7528
62.7	24234
62.72	123260
62.74	205710
62.76	100688
62.78	21357
62.8	6186
62.82	3089
62.84	1911
62.86	1311
62.88	1047
62.9	881
62.92	560
62.94	424
62.96	346
62.98	299
63	222
63.02	210
63.04	167
63.06	166
63.08	132
63.1	130
63.12	89
63.14	87
63.16	98
63.18	89
63.2	64
63.22	75
63.24	62
63.26	53
63.28	65
63.3	53
63.32	50
63.34	42
63.36	47
63.38	42
63.4	30
63.42	30
63.44	26
63.46	27
63.48	35
63.5	22
63.52	34
63.54	28
63.56	29
63.58	19
63.6	21
63.62	24
63.64	29
63.66	23
63.68	19
63.7	27
63.72	24
63.74	16
63.76	23
63.78	18
63.8	18
63.82	13
63.84	18
63.86	18
63.88	18
63.9	24
63.92	19
63.94	18
63.96	17
63.98	21
64	14
64.02	18
64.04	21
64.06	18
64.08	20
64.1	20
64.12	17
64.14	20
64.16	23
64.18	23
64.2	21
64.22	32
64.24	27
64.26	19
64.28	22
64.3	29
64.32	27
64.34	28
64.36	29
64.38	28
64.4	35
64.42	34
64.44	48
64.46	51
64.48	55
64.5	62
64.52	56
64.54	77
64.56	89
64.58	128
64.6	127
64.62	145
64.64	213
64.66	222
64.68	291
64.7	328
64.72	398
64.74	480
64.76	516
64.78	574
64.8	700
64.82	826
64.84	1007
64.86	1233
64.88	1350
64.9	1600
64.92	1741
64.94	1883
64.96	1722
64.98	1706
65	1531
65.02	1219
65.04	1056
65.06	781
65.08	641
65.1	473
65.12	365
65.14	299
65.16	229
65.18	198
65.2	168
65.22	118
65.24	119
65.26	67
65.28	69
65.3	57
65.32	52
65.34	55
65.36	44
65.38	38
65.4	26
65.42	28
65.44	22
65.46	25
65.48	11
65.5	24
65.52	21
65.54	10
65.56	16
65.58	18
65.6	26
65.62	17
65.64	15
65.66	15
65.68	20
65.7	22
65.72	20
65.74	43
65.76	75
65.78	92
65.8	141
65.82	198
65.84	237
65.86	290
65.88	334
65.9	266
65.92	230
65.94	106
65.96	44
65.98	34
66	16
66.02	10
66.04	11
66.06	11
66.08	13
66.1	8.000000
66.12	11
66.14	3.000000
66.16	5.000000
66.18	7.000000
66.2	6.000000
66.22	4.000000
66.24	7.000000
66.26	6.000000
66.28	8.000000
66.3	6.000000
66.32	9.000000
66.34	8.000000
66.36	6.000000
66.38	3.000000
66.4	14
66.42	5.000000
66.44	11
66.46	7.000000
66.48	7.000000
66.5	8.000000

; Data for range 3
_DRIVE = COUPLED
_STEPTIME = 19.2
_STEPSIZE = 0.01
_STEPMODE = C
_START = 61.5
_THETA = 30.75
_2THETA = 61.5
_KHI = -0.169602
_PHI = 0.000039
_X = 0.917012
_Y = -0.570996
_Z = 1.479004
_DETECTORSLIT = out
_AUX1 = 0
_AUX2 = -2.4
_DELAY = 120
_TIMESTARTED = 414.1419
_KV = 40
_MA = 40
_RANGE_WL = 1.5406
_3DPLANE = 0
_V4_PSD2THETA = 9999
_V4_PSDCHANNEL1 = 0
_V4_PSDAPERTURE = 2.057142
_V4_PSDTYPE = 5
_V4_PSDFIXED = 0
_V4_TEMPCONTROL = 0
_V4_TEMPSTAGE = 0
_V4_TEMPSENSOR = 0
_V4_TEMPERATURE = 323.5612
_V4_TEMPRATE = 0
_V4_TEMPDELAY = 0
_V4_TEMPRAMPFLAG = 0
_V4_COUNTERS_MASK = 1
_V4_DRIVES_MASK = 0
_V4_ENCODERS_MASK = 0
_2THETACOUNTS = 1
; 2THETA	Cnt2_D1
61.5	12
61.52	9.000000
61.54	12
61.56	12
61.58	8.000000
61.6	14
61.62	12
61.64	2.000000
61.66	11
61.68	13
61.7	9.000000
61.72	23
61.74	12
61.76	17
61.78	10
61.8	13
61.82	13
61.84	19
61.86	14
61.88	15
61.9	17
61.92	26
61.94	32
61.96	37
61.98	33
62	36
62.02	37
62.04	41
62.06	28
62.08	34
62.1	48
62.12	52
62.14	46
62.16	45
62.18	55
62.2	73
62.22	68
62.24	66
62.26	68
62.28	82
62.3	89
62.32	114
62.34	122
62.36	114
62.38	137
62.4	183
62.42	184
62.44	239
62.46	274
62.48	281
62.5	408
62.52	464
62.54	550
62.56	693
62.58	822
62.6	1107
62.62	1628
62.64	2398
62.66	3927
62.68	8300
62.7	29304
62.72	139235
62.74	195322
62.76	81229
62.78	17044
62.8	5364
62.82	2750
62.84	1651
62.86	1230
62.88	1005
62.9	789
62.92	519
62.94	363
62.96	312
62.98	258
63	213
63.02	188
63.04	182
63.06	121
63.08	146
63.1	148
63.12	97
63.14	87
63.16	73
63.18	74
63.2	69
63.22	65
63.24	60
63.26	76
63.28	38
63.3	55
63.32	54
63.34	53
63.36	34
63.38	36
63.4	40
63.42	28
63.44	31
63.46	25
63.48	31
63.5	34
63.52	36
63.54	33
63.56	25
63.58	24
63.6	31
63.62	13
63.64	26
63.66	24
63.68	26
63.7	19
63.72	21
63.74	20
63.76	25
63.78	15
63.8	21
63.82	11
63.84	17
63.86	17
63.88	16
63.9	16
63.92	16
63.94	20
63.96	10
63.98	19
64	13
64.02	22
64.04	17
64.06	15
64.08	20
64.1	21
64.12	23
64.14	18
64.16	22
64.18	24
64.2	23
64.22	24
64.24	22
64.26	26
64.28	22
64.3	28
64.32	31
64.34	32
64.36	40
64.38	31
64.4	38
64.42	43
64.44	41
64.46	42
64.48	48
64.5	46
64.52	66
64.54	67
64.56	81
64.58	120
64.6	129
64.62	166
64.64	203
64.66	246
64.68	319
64.7	364
64.72	417
64.74	448
64.76	538
64.78	623
64.8	687
64.82	870
64.84	1040
64.86	1241
64.88	1454
64.9	1542
64.92	1755
64.94	1794
64.96	1739
64.98	1587
65	1402
65.02	1192
65.04	921
65.06	765
65.08	553
65.1	450
65.12	296
65.14	262
65.16	219
65.18	187
65.2	140
65.22	127
65.24	101
65.26	76
65.28	68
65.3	53
65.32	42
65.34	53
65.36	54
65.38	50
65.4	64
65.42	52
65.44	43
65.46	34
65.48	55
65.5	44
65.52	50
65.54	57
65.56	42
65.58	46
65.6	34
65.62	39
65.64	27
65.66	40
65.68	26
65.7	42
65.72	35
65.74	55
65.76	70
65.78	107
65.8	158
65.82	202
65.84	254
65.86	268
65.88	281
65.9	302
65.92	234
65.94	87
65.96	46
65.98	24
66	21
66.02	11
66.04	16
66.06	12
66.08	10
66.1	10
66.12	12
66.14	6.000000
66.16	5.000000
66.18	2.000000
66.2	6.000000
66.22	3.000000
66.24	8.000000
66.26	4.000000
66.28	7.000000
66.3	8.000000
66.32	4.000000
66.34	3.000000
66.36	5.000000
66.38	8.000000
66.4	8.000000
66.42	7.000000
66.44	5.000000
66.46	5.000000
66.48	8.000000
66.5	11

; Data for range 4
_DRIVE = COUPLED
_STEPTIME = 19.2
_STEPSIZE = 0.01
_STEPMODE = C
_START = 61.5
_THETA = 30.75
_2THETA = 61.5
_KHI = -0.169602
_PHI = 0.000039
_X = 0.917012
_Y = -0.570996
_Z = 1.479004
_DETECTORSLIT = out
_AUX1 = 0
_AUX2 = -2.4
_DELAY = 120
_TIMESTARTED = 621.4975
_KV = 40
_MA = 40
_RANGE_WL = 1.5406
_3DPLANE = 0
_V4_PSD2THETA = 9999
_V4_PSDCHANNEL1 = 0
_V4_PSDAPERTURE = 2.057142
_V4_PSDTYPE = 5
_V4_PSDFIXED = 0
_V4_TEMPCONTROL = 0
_V4_TEMPSTAGE = 0
_V4_TEMPSENSOR = 0
_V4_TEMPERATURE = 325.4115
_V4_TEMPRATE = 0
_V4_TEMPDELAY = 0
_V4_TEMPRAMPFLAG = 0
_V4_COUNTERS_MASK = 1
_V4_DRIVES_MASK = 0
_V4_ENCODERS_MASK = 0
_2THETACOUNTS = 1
; 2THETA	Cnt2_D1
61.5	9.000000
61.52	10
61.54	14
61.56	7.000000
61.58	9.000000
61.6	7.000000
61.62	5.000000
61.64	12
61.66	10
61.68	8.000000
61.7	10
61.72	16
61.74	17
61.76	13
61.78	19
61.8	15
61.82	15
61.84	19
61.86	15
61.88	21
61.9	24
61.92	17
61.94	31
61.96	36
61.98	36
62	38
62.02	45
62.04	40
62.06	33
62.08	53
62.1	43
62.12	34
62.14	50
62.16	57
62.18	58
62.2	55
62.22	51
62.24	75
62.26	83
62.28	91
62.3	104
62.32	107
62.34	121
62.36	133
62.38	155
62.4	169
62.42	162
62.44	234
62.46	275
62.48	313
62.5	414
62.52	426
62.54	568
62.56	720
62.58	901
62.6	1161
62.62	1627
62.64	2577
62.66	4260
62.68	9291
62.7	36725
62.72	157036
62.74	185578
62.76	66516
62.78	13958
62.8	4672
62.82	2505
62.84	1694
62.86	1153
62.88	1005
62.9	704
62.92	493
62.94	424
62.96	307
62.98	217
63	209
63.02	196
63.04	159
63.06	139
63.08	134
63.1	107
63.12	112
63.14	93
63.16	91
63.18	89
63.2	87
63.22	55
63.24	74
63.26	64
63.28	57
63.3	51
63.32	43
63.34	45
63.36	34
63.38	36
63.4	29
63.42	32
63.44	29
63.46	27
63.48	33
63.5	24
63.52	22
63.54	29
63.56	17
63.58	27
63.6	23
63.62	19
63.64	18
63.66	25
63.68	23
63.7	17
63.72	23
63.74	26
63.76	20
63.78	12
63.8	6.000000
63.82	20
63.84	16
63.86	13
63.88	17
63.9	20
63.92	20
63.94	15
63.96	24
63.98	11
64	14
64.02	15
64.04	22
64.06	23
64.08	17
64.1	19
64.12	29
64.14	26
64.16	26
64.18	19
64.2	21
64.22	24
64.24	23
64.26	28
64.28	19
64.3	27
64.32	30
64.34	30
64.36	33
64.38	31
64.4	40
64.42	43
64.44	52
64.46	44
64.48	55
64.5	68
64.52	84
64.54	73
64.56	104
64.58	110
64.6	151
64.62	191
64.64	230
64.66	255
64.68	322
64.7	339
64.72	426
64.74	482
64.76	569
64.78	645
64.8	795
64.82	935
64.84	1088
64.86	1287
64.88	1470
64.9	1668
64.92	1656
64.94	1791
64.96	1609
64.98	1488
65	1262
65.02	1040
65.04	781
65.06	608
65.08	450
65.1	364
65.12	327
65.14	212
65.16	194
65.18	166
65.2	146
65.22	112
65.24	99
65.26	87
65.28	76
65.3	76
65.32	84
65.34	61
65.36	58
65.38	73
65.4	56
65.42	65
65.44	75
65.46	89
65.48	104
65.5	91
65.52	112
65.54	108
65.56	88
65.58	91
65.6	84
65.62	47
65.64	63
65.66	43
65.68	31
65.7	47
65.72	45
65.74	37
65.76	77
65.78	127
65.8	154
65.82	210
65.84	255
65.86	305
65.88	300
65.9	306
65.92	203
65.94	92
65.96	36
65.98	30
66	16
66.02	14
66.04	7.000000
66.06	7.000000
66.08	7.000000
66.1	6.000000
66.12	16
66.14	8.000000
66.16	7.000000
66.18	7.000000
66.2	6.000000
66.22	9.000000
66.24	7.000000
66.26	6.000000
66.28	12
66.3	10
66.32	6.000000
66.34	6.000000
66.36	2.000000
66.38	7.000000
66.4	6.000000
66.42	10
66.44	8.000000
66.46	5.000000
66.48	7.000000
66.5	3.000000

; Data for range 5
_DRIVE = COUPLED
_STEPTIME = 19.2
_STEPSIZE = 0.01
_STEPMODE = C
_START = 61.5
_THETA = 30.75
_2THETA = 61.5
_KHI = -0.169602
_PHI = 0.000039
_X = 0.917012
_Y = -0.570996
_Z = 1.479004
_DETECTORSLIT = out
_AUX1 = 0
_AUX2 = -2.4
_DELAY = 120
_TIMESTARTED = 823.3306
_KV = 40
_MA = 40
_RANGE_WL = 1.5406
_3DPLANE = 0
_V4_PSD2THETA = 9999
_V4_PSDCHANNEL1 = 0
_V4_PSDAPERTURE = 2.057142
_V4_PSDTYPE = 5
_V4_PSDFIXED = 0
_V4_TEMPCONTROL = 0
_V4_TEMPSTAGE = 0
_V4_TEMPSENSOR = 0
_V4_TEMPERATURE = 327.4833
_V4_TEMPRATE = 0
_V4_TEMPDELAY = 0
_V4_TEMPRAMPFLAG = 0
_V4_COUNTERS_MASK = 1
_V4_DRIVES_MASK = 0
_V4_ENCODERS_MASK = 0
_2THETACOUNTS = 1
; 2THETA	Cnt2_D1
61.5	9.000000
61.52	9.000000
61.54	10
61.56	15
61.58	8.000000
61.6	11
61.62	14
61.64	7.000000
61.66	12
61.68	21
61.7	15
61.72	13
61.74	9.000000
61.76	12
61.78	18
61.8	19
61.82	14
61.84	22
61.86	13
61.88	16
61.9	18
61.92	26
61.94	21
61.96	30
61.98	31
62	26
62.02	33
62.04	33
62.06	41
62.08	45
62.1	43
62.12	47
62.14	40
62.16	52
62.18	56
62.2	59
62.22	57
62.24	63
62.26	92
62.28	84
62.3	87
62.32	125
62.34	114
62.36	141
62.38	135
62.4	183
62.42	169
62.44	226
62.46	248
62.48	312
62.5	330
62.52	435
62.54	555
62.56	693
62.58	853
62.6	1234
62.62	1635
62.64	2452
62.66	4184
62.68	8971
62.7	37017
62.72	154897
62.74	174847
62.76	59032
62.78	12723
62.8	4518
62.82	2366
62.84	1541
62.86	1138
62.88	926
62.9	758
62.92	478
62.94	342
62.96	285
62.98	225
63	187
63.02	184
63.04	168
63.06	153
63.08	138
63.1	138
63.12	97
63.14	87
63.16	86
63.18	73
63.2	81
63.22	53
63.24	61
63.26	46
63.28	38
63.3	46
63.32	31
63.34	58
63.36	45
63.38	49
63.4	38
63.42	39
63.44	25
63.46	26
63.48	16
63.5	25
63.52	21
63.54	32
63.56	27
63.58	25
63.6	24
63.62	29
63.64	28
63.66	18
63.68	19
63.7	18
63.72	16
63.74	16
63.76	17
63.78	12
63.8	25
63.82	17
63.84	13
63.86	18
63.88	15
63.9	17
63.92	11
63.94	19
63.96	22
63.98	19
64	17
64.02	13
64.04	16
64.06	27
64.08	17
64.1	20
64.12	28
64.14	19
64.16	21
64.18	21
64.2	21
64.22	22
64.24	29
64.26	27
64.28	39
64.3	31
64.32	29
64.34	26
64.36	39
64.38	43
64.4	35
64.42	39
64.44	41
64.46	44
64.48	61
64.5	77
64.52	79
64.54	95
64.56	102
64.58	112
64.6	163
64.62	196
64.64	252
64.66	266
64.68	333
64.7	390
64.72	442
64.74	537
64.76	604
64.78	694
64.8	913
64.82	1044
64.84	1201
64.86	1397
64.88	1439
64.9	1585
64.92	1508
64.94	1399
64.96	1150
64.98	1008
65	803
65.02	626
65.04	474
65.06	357
65.08	318
65.1	249
65.12	204
65.14	167
65.16	151
65.18	119
65.2	111
65.22	102
65.24	108
65.26	98
65.28	98
65.3	99
65.32	93
65.34	117
65.36	119
65.38	128
65.4	179
65.42	198
65.44	282
65.46	339
65.48	356
65.5	370
65.52	358
65.54	334
65.56	267
65.58	227
65.6	167
65.62	126
65.64	88
65.66	62
65.68	70
65.7	56
65.72	75
65.74	66
65.76	102
65.78	110
65.8	178
65.82	222
65.84	258
65.86	288
65.88	294
65.9	294
65.92	208
65.94	109
65.96	41
65.98	19
66	14
66.02	9.000000
66.04	14
66.06	14
66.08	2.000000
66.1	8.000000
66.12	13
66.14	6.000000
66.16	7.000000
66.18	10
66.2	6.000000
66.22	6.000000
66.24	8.000000
66.26	13
66.28	14
66.3	8.000000
66.32	6.000000
66.34	4.000000
66.36	7.000000
66.38	11
66.4	3.000000
66.42	10
66.44	8.000000
66.46	8.000000
66.48	10
66.5	9.000000

; Data for range 6
_DRIVE = COUPLED
_STEPTIME = 19.2
_STEPSIZE = 0.01
_STEPMODE = C
_START = 61.5
_THETA = 30.75
_2THETA = 61.5
_KHI = -0.169602
_PHI = 0.000039
_X = 0.917012
_Y = -0.570996
_Z = 1.479004
_DETECTORSLIT = out
_AUX1 = 0
_AUX2 = -2.4
_DELAY = 120
_TIMESTARTED = 1026.427
_KV = 40
_MA = 40
_RANGE_WL = 1.5406
_3DPLANE = 0
_V4_PSD2THETA = 9999
_V4_PSDCHANNEL1 = 0
_V4_PSDAPERTURE = 2.057142
_V4_PSDTYPE = 5
_V4_PSDFIXED = 0
_V4_TEMPCONTROL = 0
_V4_TEMPSTAGE = 0
_V4_TEMPSENSOR = 0
_V4_TEMPERATURE = 329.4294
_V4_TEMPRATE = 0
_V4_TEMPDELAY = 0
_V4_TEMPRAMPFLAG = 0
_V4_COUNTERS_MASK = 1
_V4_DRIVES_MASK = 0
_V4_ENCODERS_MASK = 0
_2THETACOUNTS = 1
; 2THETA	Cnt2_D1
61.5	6.000000
61.52	12
61.54	9.000000
61.56	7.000000
61.58	17
61.6	17
61.62	9.000000
61.64	9.000000
61.66	13
61.68	11
61.7	12
61.72	24
61.74	14
61.76	17
61.78	12
61.8	13
61.82	17
61.84	17
61.86	24
61.88	19
61.9	20
61.92	19
61.94	15
61.96	29
61.98	36
62	24
62.02	27
62.04	40
[...]
_V4_ENCODERS_MASK = 0
_2THETACOUNTS = 1
; 2THETA	Cnt2_D1
61.5	14
61.52	10
61.54	11
61.56	8.000000
61.58	7.000000
61.6	12
61.62	15
61.64	14
61.66	14
61.68	15
61.7	9.000000
61.72	17
61.74	21
61.76	21
61.78	12
61.8	12
61.82	17
61.84	15
61.86	24
61.88	21
61.9	26
61.92	24
61.94	25
61.96	34
61.98	46
62	31
62.02	35
62.04	45
62.06	41
62.08	46
62.1	52
62.12	48
62.14	65
62.16	66
62.18	61
62.2	59
62.22	51
62.24	86
62.26	93
62.28	78
62.3	96
62.32	115
62.34	147
62.36	153
62.38	178
62.4	207
62.42	223
62.44	258
62.46	340
62.48	403
62.5	484
62.52	604
62.54	714
62.56	944
62.58	1230
62.6	1690
62.62	2485
62.64	4283
62.66	10564
62.68	48252
62.7	176602
62.72	167074
62.74	47886
62.76	10183
62.78	3852
62.8	2182
62.82	1422
62.84	1030
62.86	919
62.88	663
62.9	492
62.92	417
62.94	295
62.96	247
62.98	229
63	184
63.02	168
63.04	125
63.06	131
63.08	119
63.1	104
63.12	83
63.14	94
63.16	83
63.18	62
63.2	62
63.22	69
63.24	59
63.26	56
63.28	54
63.3	56
63.32	48
63.34	38
63.36	44
63.38	38
63.4	27
63.42	24
63.44	33
63.46	30
63.48	29
63.5	25
63.52	34
63.54	26
63.56	27
63.58	26
63.6	31
63.62	25
63.64	24
63.66	18
63.68	35
63.7	25
63.72	21
63.74	18
63.76	11
63.78	7.000000
63.8	15
63.82	19
63.84	22
63.86	14
63.88	21
63.9	9.000000
63.92	14
63.94	13
63.96	22
63.98	19
64	18
64.02	11
64.04	21
64.06	11
64.08	23
64.1	28
64.12	18
64.14	19
64.16	24
64.18	16
64.2	14
64.22	16
64.24	22
64.26	22
64.28	22
64.3	12
64.32	11
64.34	20
64.36	13
64.38	18
64.4	11
64.42	9.000000
64.44	19
64.46	19
64.48	16
64.5	16
64.52	20
64.54	25
64.56	13
64.58	19
64.6	24
64.62	22
64.64	22
64.66	20
64.68	20
64.7	27
64.72	23
64.74	32
64.76	25
64.78	45
64.8	41
64.82	33
64.84	52
64.86	53
64.88	66
64.9	55
64.92	64
64.94	88
64.96	81
64.98	113
65	110
65.02	134
65.04	159
65.06	186
65.08	242
65.1	308
65.12	417
65.14	510
65.16	673
65.18	873
65.2	1231
65.22	1630
65.24	2234
65.26	2752
65.28	3160
65.3	3221
65.32	2887
65.34	2459
65.36	1845
65.38	1281
65.4	818
65.42	659
65.44	466
65.46	372
65.48	300
65.5	219
65.52	191
65.54	157
65.56	108
65.58	110
65.6	112
65.62	77
65.64	56
65.66	56
65.68	65
65.7	55
65.72	69
65.74	72
65.76	113
65.78	111
65.8	191
65.82	251
65.84	295
65.86	288
65.88	309
65.9	248
65.92	146
65.94	81
65.96	38
65.98	32
66	16
66.02	21
66.04	16
66.06	17
66.08	11
66.1	12
66.12	15
66.14	10
66.16	8.000000
66.18	8.000000
66.2	16
66.22	6.000000
66.24	8.000000
66.26	12
66.28	7.000000
66.3	8.000000
66.32	7.000000
66.34	10
66.36	9.000000
66.38	3.000000
66.4	11
66.42	8.000000
66.44	8.000000
66.46	7.000000
66.48	10
66.5	10

; Data for range 21
_DRIVE = COUPLED
_STEPTIME = 19.2
_STEPSIZE = 0.01
_STEPMODE = C
_START = 61.5
_THETA = 30.75
_2THETA = 61.5
_KHI = -0.169602
_PHI = 0.000039
_X = 0.917012
_Y = -0.570996
_Z = 1.479004
_DETECTORSLIT = out
_AUX1 = 0
_AUX2 = -2.4
_DELAY = 120
_TIMESTARTED = 4097.23
_KV = 40
_MA = 40
_RANGE_WL = 1.5406
_3DPLANE = 0
_V4_PSD2THETA = 9999
_V4_PSDCHANNEL1 = 0
_V4_PSDAPERTURE = 2.057142
_V4_PSDTYPE = 5
_V4_PSDFIXED = 0
_V4_TEMPCONTROL = 0
_V4_TEMPSTAGE = 0
_V4_TEMPSENSOR = 0
_V4_TEMPERATURE = 368.15
_V4_TEMPRATE = 0
_V4_TEMPDELAY = 0
_V4_TEMPRAMPFLAG = 0
_V4_COUNTERS_MASK = 1
_V4_DRIVES_MASK = 0
_V4_ENCODERS_MASK = 0
_2THETACOUNTS = 1
; 2THETA	Cnt2_D1
61.5	10
61.52	10
61.54	14
61.56	13
61.58	12
61.6	10
61.62	8.000000
61.64	12
61.66	15
61.68	20
61.7	17
61.72	14
61.74	15
61.76	23
61.78	14
61.8	23
61.82	20
61.84	17
61.86	20
61.88	17
61.9	18
61.92	35
61.94	35
61.96	21
61.98	35
62	28
62.02	45
62.04	42
62.06	42
62.08	40
62.1	66
62.12	42
62.14	43
62.16	57
62.18	69
62.2	65
62.22	81
62.24	96
62.26	103
62.28	106
62.3	122
62.32	123
62.34	132
62.36	155
62.38	213
62.4	202
62.42	256
62.44	259
62.46	330
62.48	362
62.5	487
62.52	614
62.54	746
62.56	994
62.58	1386
62.6	1829
62.62	2842
62.64	4983
62.66	12784
62.68	64264
62.7	192985
62.72	152991
62.74	39160
62.76	8685
62.78	3662
62.8	2142
62.82	1517
62.84	1182
62.86	912
62.88	658
62.9	470
62.92	371
62.94	296
62.96	217
62.98	220
63	205
63.02	161
63.04	139
63.06	120
63.08	107
63.1	114
63.12	90
63.14	86
63.16	72
63.18	73
63.2	69
63.22	66
63.24	66
63.26	65
63.28	56
63.3	68
63.32	31
63.34	37
63.36	44
63.38	26
63.4	35
63.42	26
63.44	35
63.46	32
63.48	25
63.5	20
63.52	32
63.54	36
63.56	24
63.58	25
63.6	20
63.62	23
63.64	25
63.66	20
63.68	18
63.7	24
63.72	25
63.74	28
63.76	11
63.78	19
63.8	17
63.82	19
63.84	12
63.86	14
63.88	18
63.9	23
63.92	19
63.94	22
63.96	21
63.98	19
64	8.000000
64.02	10
64.04	23
64.06	26
64.08	16
64.1	23
64.12	23
64.14	10
64.16	17
64.18	17
64.2	20
64.22	14
64.24	21
64.26	9.000000
64.28	20
64.3	21
64.32	21
64.34	16
64.36	14
64.38	16
64.4	24
64.42	17
64.44	25
64.46	18
64.48	18
64.5	21
64.52	17
64.54	29
64.56	27
64.58	20
64.6	18
64.62	17
64.64	17
64.66	19
64.68	32
64.7	30
64.72	23
64.74	24
64.76	31
64.78	42
64.8	36
64.82	44
64.84	49
64.86	65
64.88	45
64.9	61
64.92	61
64.94	80
64.96	101
64.98	104
65	127
65.02	138
65.04	215
65.06	219
65.08	303
65.1	382
65.12	475
65.14	630
65.16	847
65.18	1034
65.2	1495
65.22	1926
65.24	2501
65.26	2853
65.28	3139
65.3	2980
65.32	2621
65.34	2079
65.36	1557
65.38	1077
65.4	765
65.42	521
65.44	401
65.46	336
65.48	260
65.5	228
65.52	148
65.54	157
65.56	121
65.58	89
65.6	89
65.62	77
65.64	55
65.66	71
65.68	57
65.7	48
65.72	62
65.74	76
65.76	100
65.78	163
65.8	206
65.82	241
65.84	291
65.86	315
65.88	310
65.9	259
65.92	167
65.94	72
65.96	48
65.98	21
66	24
66.02	13
66.04	17
66.06	10
66.08	11
66.1	6.000000
66.12	15
66.14	17
66.16	13
66.18	11
66.2	5.000000
66.22	4.000000
66.24	6.000000
66.26	6.000000
66.28	8.000000
66.3	6.000000
66.32	12
66.34	6.000000
66.36	12
66.38	11
66.4	6.000000
66.42	4.000000
66.44	12
66.46	6.000000
66.48	6.000000
66.5	11

; Data for range 22
_DRIVE = COUPLED
_STEPTIME = 19.2
_STEPSIZE = 0.01
_STEPMODE = C
_START = 61.5
_THETA = 30.75
_2THETA = 61.5
_KHI = -0.169602
_PHI = 0.000039
_X = 0.917012
_Y = -0.570996
_Z = 1.479004
_DETECTORSLIT = out
_AUX1 = 0
_AUX2 = -2.4
_DELAY = 120
_TIMESTARTED = 4306.864
_KV = 40
_MA = 40
_RANGE_WL = 1.5406
_3DPLANE = 0
_V4_PSD2THETA = 9999
_V4_PSDCHANNEL1 = 0
_V4_PSDAPERTURE = 2.057142
_V4_PSDTYPE = 5
_V4_PSDFIXED = 0
_V4_TEMPCONTROL = 0
_V4_TEMPSTAGE = 0
_V4_TEMPSENSOR = 0
_V4_TEMPERATURE = 373.15
_V4_TEMPRATE = 0
_V4_TEMPDELAY = 0
_V4_TEMPRAMPFLAG = 0
_V4_COUNTERS_MASK = 1
_V4_DRIVES_MASK = 0
_V4_ENCODERS_MASK = 0
_2THETACOUNTS = 1
; 2THETA	Cnt2_D1
61.5	8.000000
61.52	10
61.54	11
61.56	7.000000
61.58	10
61.6	15
61.62	14
61.64	8.000000
61.66	13
61.68	12
61.7	15
61.72	17
61.74	20
61.76	12
61.78	17
61.8	26
61.82	14
61.84	14
61.86	16
61.88	30
61.9	29
61.92	27
61.94	31
61.96	25
61.98	33
62	62
62.02	41
62.04	41
62.06	49
62.08	48
62.1	61
62.12	57
62.14	66
62.16	60
62.18	73
62.2	69
62.22	84
62.24	85
62.26	89
62.28	103
62.3	131
62.32	135
62.34	136
62.36	146
62.38	176
62.4	209
62.42	231
62.44	284
62.46	356
62.48	465
62.5	495
62.52	642
62.54	834
62.56	1003
62.58	1395
62.6	2065
62.62	3040
62.64	5688
62.66	16599
62.68	85590
62.7	202481
62.72	130945
62.74	30573
62.76	7365
62.78	3460
62.8	1938
62.82	1374
62.84	1074
62.86	883
62.88	610
62.9	461
62.92	351
62.94	276
62.96	236
62.98	209
63	177
63.02	145
63.04	134
63.06	138
63.08	122
63.1	94
63.12	97
63.14	92
63.16	72
63.18	89
63.2	70
63.22	65
63.24	59
63.26	42
63.28	54
63.3	52
63.32	34
63.34	42
63.36	29
63.38	36
63.4	39
63.42	22
63.44	35
63.46	27
63.48	29
63.5	24
63.52	30
63.54	28
63.56	31
63.58	18
63.6	22
63.62	27
63.64	19
63.66	22
63.68	26
63.7	15
63.72	18
63.74	8.000000
63.76	20
63.78	17
63.8	16
63.82	21
63.84	22
63.86	18
63.88	8.000000
63.9	20
63.92	14
63.94	19
63.96	19
63.98	20
64	19
64.02	16
64.04	19
64.06	17
64.08	12
64.1	11
64.12	18
64.14	26
64.16	16
64.18	9.000000
64.2	21
64.22	24
64.24	18
64.26	12
64.28	12
64.3	18
64.32	18
64.34	17
64.36	21
64.38	16
64.4	17
64.42	16
64.44	18
64.46	15
64.48	17
64.5	17
64.52	22
64.54	20
64.56	21
64.58	16
64.6	22
64.62	24
64.64	23
64.66	27
64.68	26
64.7	28
64.72	30
64.74	43
64.76	29
64.78	40
64.8	44
64.82	34
64.84	53
64.86	54
64.88	61
64.9	74
64.92	76
64.94	78
64.96	88
64.98	119
65	152
65.02	185
65.04	209
65.06	284
65.08	369
65.1	443
65.12	578
65.14	723
65.16	971
65.18	1270
65.2	1764
65.22	2192
65.24	2664
65.26	3057
65.28	2948
65.3	2833
65.32	2455
65.34	1829
65.36	1257
65.38	877
65.4	604
65.42	467
65.44	374
65.46	268
65.48	234
65.5	191
65.52	140
65.54	114
65.56	101
65.58	76
65.6	71
65.62	58
65.64	69
65.66	54
65.68	60
65.7	53
65.72	82
65.74	88
65.76	120
65.78	158
65.8	192
65.82	237
65.84	294
65.86	334
65.88	325
65.9	225
65.92	144
65.94	71
65.96	37
65.98	13
66	19
66.02	24
66.04	8.000000
66.06	14
66.08	8.000000
66.1	12
66.12	12
66.14	15
66.16	14
66.18	7.000000
66.2	9.000000
66.22	8.000000
66.24	13
66.26	4.000000
66.28	14
66.3	13
66.32	7.000000
66.34	5.000000
66.36	6.000000
66.38	9.000000
66.4	9.000000
66.42	10
66.44	7.000000
66.46	12
66.48	9.000000
66.5	10