File: Examples/Yscan.uxd
;content of D:\DATA\V_Thery\VO2gradT\campagne2\100 nm\th2th392-419-001-01-1D-scanY-10-10 UP.raw - (Diffrac Plus V4 file)
_FILEVERSION = 3
_SAMPLE
_+SAMPLE
_USER = Lab Manager
_GONIOMETER_CODE = 20
_STAGE_CODE = 4
; Goniometer : D8 theta/2theta, stage : Open eulerian craddle
_SAMPLE_CHANGER_CODE = 0
_ATTACHMENTS_CODE = 0
_GONIOMETER_RADIUS = 390
_FIXED_DETSLIT = 0
_MONOCHROMATOR = 0
; Incident beam monochromator : None
_BETA_FILTER = N
_ANALYZER_CODE = 0
; Received beam analyzer : None
_DATEMEASURED = 07-Sep-2015 16:13:52
_RUNTIME = 44.81237
_WL_UNIT = A
_WL1 = 1.5406
_WL2 = 1.54439
_WL3 = 1.39222
_WLRATIO = 0.5
_ANODE = Cu
_V4_INF_USER = Lab Manager
_V4_INF_CREATOR = V5Converter
_V4_INF_CREATOR_VERSION = 3.3.50.0

; Data for range 1
_DRIVE = COUPLED
_STEPTIME = 19.2
_STEPSIZE = 0.01
_STEPMODE = C
_START = 39.2
_THETA = 19.6
_2THETA = 39.2
_KHI = -0.162797
_PHI = 0.000039
_X = -2.007
_Y = -11.076
_Z = -0.810996
_DETECTORSLIT = out
_AUX1 = 0
_AUX2 = -2.4
_TIMESTARTED = 0
_KV = 40
_MA = 40
_RANGE_WL = 1.5406
_3DPLANE = 0
_V4_PSD2THETA = 9999
_V4_PSDCHANNEL1 = 0
_V4_PSDAPERTURE = 2.057142
_V4_PSDTYPE = 5
_V4_PSDFIXED = 0
_V4_TEMPCONTROL = 0
_V4_TEMPSTAGE = 0
_V4_TEMPSENSOR = 0
_V4_TEMPERATURE = 273.15
_V4_TEMPRATE = 0
_V4_TEMPDELAY = 0
_V4_TEMPRAMPFLAG = 0
_V4_COUNTERS_MASK = 1
_V4_DRIVES_MASK = 0
_V4_ENCODERS_MASK = 0
_2THETACOUNTS = 1
; 2THETA	Cnt2_D1
39.2	16
39.21	17
39.22	14
39.23	10
39.24	12
39.25	10
39.26	16
39.27	9.000000
39.28	20
39.29	18
39.3	13
39.31	17
39.32	14
39.33	14
39.34	13
39.35	11
39.36	12
39.37	18
39.38	13
39.39	10
39.4	9.000000
39.41	14
39.42	13
39.43	9.000000
39.44	12
39.45	15
39.46	11
39.47	12
39.48	15
39.49	16
39.5	12
39.51	10
39.52	12
39.53	10
39.54	13
39.55	13
39.56	10
39.57	15
39.58	20
39.59	14
39.6	11
39.61	9.000000
39.62	12
39.63	17
39.64	10
39.65	14
39.66	18
39.67	12
39.68	16
39.69	10
39.7	15
39.71	13
39.72	9.000000
39.73	19
39.74	14
39.75	18
39.76	12
39.77	17
39.78	7.000000
39.79	14
39.8	9.000000
39.81	11
39.82	15
39.83	7.000000
39.84	11
39.85	12
39.86	16
39.87	14
39.88	10
39.89	12
39.9	12
39.91	14
39.92	17
39.93	17
39.94	8.000000
39.95	16
39.96	15
39.97	10
39.98	20
39.99	12
40	9.000000
40.01	13
40.02	20
40.03	5.000000
40.04	14
40.05	8.000000
40.06	12
40.07	16
40.08	16
40.09	12
40.1	12
40.11	12
40.12	13
40.13	15
40.14	10
40.15	8.000000
40.16	11
40.17	10
40.18	12
40.19	13
40.2	19
40.21	13
40.22	10
40.23	10
40.24	15
40.25	19
40.26	10
40.27	13
40.28	18
40.29	19
40.3	10
40.31	12
40.32	12
40.33	13
40.34	14
40.35	9.000000
40.36	10
40.37	16
40.38	15
40.39	11
40.4	8.000000
40.41	10
40.42	15
40.43	10
40.44	14
40.45	12
40.46	10
40.47	10
40.48	10
40.49	10
40.5	10
40.51	16
40.52	11
40.53	15
40.54	12
40.55	16
40.56	13
40.57	9.000000
40.58	14
40.59	13
40.6	8.000000
40.61	17
40.62	13
40.63	15
40.64	13
40.65	23
40.66	11
40.67	16
40.68	13
40.69	13
40.7	7.000000
40.71	6.000000
40.72	12
40.73	16
40.74	15
40.75	14
40.76	14
40.77	15
40.78	18
40.79	10
40.8	7.000000
40.81	12
40.82	13
40.83	11
40.84	17
40.85	8.000000
40.86	15
40.87	13
40.88	12
40.89	10
40.9	10
40.91	5.000000
40.92	9.000000
40.93	9.000000
40.94	8.000000
40.95	12
40.96	17
40.97	8.000000
40.98	17
40.99	10
41	15
41.01	14
41.02	10
41.03	8.000000
41.04	6.000000
41.05	13
41.06	18
41.07	16
41.08	6.000000
41.09	7.000000
41.1	12
41.11	14
41.12	15
41.13	12
41.14	13
41.15	17
41.16	17
41.17	7.000000
41.18	14
41.19	14
41.2	11
41.21	20
41.22	8.000000
41.23	14
41.24	15
41.25	11
41.26	17
41.27	12
41.28	14
41.29	15
41.3	16
41.31	10
41.32	17
41.33	11
41.34	11
41.35	17
41.36	21
41.37	15
41.38	10
41.39	16
41.4	15
41.41	16
41.42	17
41.43	23
41.44	14
41.45	21
41.46	25
41.47	22
41.48	21
41.49	15
41.5	13
41.51	19
41.52	12
41.53	16
41.54	15
41.55	18
41.56	11
41.57	22
41.58	24
41.59	37
41.6	120
41.61	464
41.62	1481
41.63	3173
41.64	3372
41.65	1373
41.66	183
41.67	54
41.68	37
41.69	28
41.7	33
41.71	23
41.72	18
41.73	17
41.74	24
41.75	19
41.76	14
41.77	15
41.78	11
41.79	14
41.8	6.000000
41.81	6.000000
41.82	11
41.83	19
41.84	9.000000
41.85	5.000000
41.86	16
41.87	11
41.88	10
41.89	17
41.9	10

; Data for range 2
_DRIVE = COUPLED
_STEPTIME = 19.2
_STEPSIZE = 0.01
_STEPMODE = C
_START = 39.2
_THETA = 19.6
_2THETA = 39.2
_KHI = -0.162797
_PHI = 0.000039
_X = -2.007
_Y = -10.826
_Z = -0.810996
_DETECTORSLIT = out
_AUX1 = 0
_AUX2 = -2.4
_TIMESTARTED = 58.0321
_KV = 40
_MA = 40
_RANGE_WL = 1.5406
_3DPLANE = 0
_V4_PSD2THETA = 9999
_V4_PSDCHANNEL1 = 0
_V4_PSDAPERTURE = 2.057142
_V4_PSDTYPE = 5
_V4_PSDFIXED = 0
_V4_TEMPCONTROL = 0
_V4_TEMPSTAGE = 0
_V4_TEMPSENSOR = 0
_V4_TEMPERATURE = 273.15
_V4_TEMPRATE = 0
_V4_TEMPDELAY = 0
_V4_TEMPRAMPFLAG = 0
_V4_COUNTERS_MASK = 1
_V4_DRIVES_MASK = 0
_V4_ENCODERS_MASK = 0
_2THETACOUNTS = 1
; 2THETA	Cnt2_D1
39.2	10
39.21	16
39.22	14
39.23	13
39.24	15
39.25	10
39.26	19
39.27	15
39.28	9.000000
39.29	18
39.3	10
39.31	17
39.32	10
39.33	11
39.34	15
39.35	13
39.36	18
39.37	15
39.38	12
39.39	16
39.4	14
39.41	13
39.42	13
39.43	17
39.44	10
39.45	10
39.46	15
39.47	22
39.48	20
39.49	21
39.5	17
39.51	15
39.52	13
39.53	13
39.54	14
39.55	19
39.56	7.000000
39.57	12
39.58	21
39.59	9.000000
39.6	13
39.61	16
39.62	12
39.63	18
39.64	14
39.65	17
39.66	10
39.67	13
39.68	24
39.69	14
39.7	17
39.71	12
39.72	21
39.73	20
39.74	10
39.75	15
39.76	9.000000
39.77	8.000000
39.78	20
39.79	18
39.8	16
39.81	14
39.82	10
39.83	21
39.84	9.000000
39.85	10
39.86	5.000000
39.87	11
39.88	15
39.89	13
39.9	13
39.91	20
39.92	22
39.93	13
39.94	17
39.95	17
39.96	8.000000
39.97	15
39.98	18
39.99	11
40	16
40.01	10
40.02	8.000000
40.03	12
40.04	8.000000
40.05	19
40.06	13
40.07	16
40.08	12
40.09	9.000000
40.1	13
40.11	8.000000
40.12	16
40.13	11
40.14	14
40.15	17
40.16	10
40.17	15
40.18	21
40.19	15
40.2	19
40.21	14
40.22	8.000000
40.23	19
40.24	15
40.25	15
40.26	19
40.27	12
40.28	13
40.29	10
40.3	6.000000
40.31	18
40.32	6.000000
40.33	17
40.34	9.000000
40.35	15
40.36	13
40.37	18
40.38	11
40.39	15
40.4	13
40.41	19
40.42	11
40.43	10
40.44	14
40.45	10
40.46	11
40.47	8.000000
40.48	15
40.49	16
40.5	16
40.51	19
40.52	10
40.53	12
40.54	13
40.55	15
40.56	14
40.57	10
40.58	11
40.59	14
40.6	19
40.61	8.000000
40.62	13
40.63	11
40.64	14
40.65	13
40.66	12
40.67	12
40.68	13
40.69	14
40.7	20
40.71	15
40.72	9.000000
40.73	21
40.74	15
40.75	11
40.76	11
40.77	13
40.78	19
40.79	15
40.8	14
40.81	13
40.82	11
40.83	15
40.84	9.000000
40.85	17
40.86	7.000000
40.87	11
40.88	24
40.89	8.000000
40.9	12
40.91	16
40.92	10
40.93	14
40.94	14
40.95	14
40.96	11
40.97	14
40.98	18
40.99	14
41	13
41.01	21
41.02	23
41.03	26
41.04	15
41.05	14
41.06	16
41.07	15
41.08	17
41.09	12
41.1	9.000000
41.11	16
41.12	18
41.13	19
41.14	17
41.15	19
41.16	16
41.17	12
41.18	14
41.19	18
41.2	14
41.21	16
41.22	18
41.23	12
41.24	16
41.25	12
41.26	17
41.27	12
41.28	14
41.29	21
41.3	19
41.31	6.000000
41.32	12
41.33	10
41.34	19
41.35	8.000000
41.36	15
41.37	15
41.38	16
41.39	18
41.4	17
41.41	17
41.42	22
41.43	19
41.44	17
41.45	21
41.46	18
41.47	22
41.48	27
41.49	16
41.5	22
41.51	24
41.52	30
41.53	20
41.54	14
41.55	23
41.56	30
41.57	42
41.58	51
41.59	60
41.6	90
41.61	222
41.62	786
41.63	4701
41.64	19283
41.65	36036
41.66	20654
41.67	2276
41.68	194
41.69	102
41.7	72
41.71	52
41.72	55
41.73	32
41.74	36
41.75	38
41.76	22
41.77	31
41.78	15
41.79	19
41.8	17
41.81	27
41.82	21
41.83	22
41.84	18
41.85	17
41.86	21
41.87	15
41.88	16
41.89	17
41.9	19

; Data for range 3
_DRIVE = COUPLED
_STEPTIME = 19.2
_STEPSIZE = 0.01
_STEPMODE = C
_START = 39.2
_THETA = 19.6
_2THETA = 39.2
_KHI = -0.162797
_PHI = 0.000039
_X = -2.007
_Y = -10.576
_Z = -0.810996
_DETECTORSLIT = out
_AUX1 = 0
_AUX2 = -2.4
_TIMESTARTED = 114.7538
_KV = 40
_MA = 40
_RANGE_WL = 1.5406
_3DPLANE = 0
_V4_PSD2THETA = 9999
_V4_PSDCHANNEL1 = 0
_V4_PSDAPERTURE = 2.057142
_V4_PSDTYPE = 5
_V4_PSDFIXED = 0
_V4_TEMPCONTROL = 0
_V4_TEMPSTAGE = 0
_V4_TEMPSENSOR = 0
_V4_TEMPERATURE = 273.15
_V4_TEMPRATE = 0
_V4_TEMPDELAY = 0
_V4_TEMPRAMPFLAG = 0
_V4_COUNTERS_MASK = 1
_V4_DRIVES_MASK = 0
_V4_ENCODERS_MASK = 0
_2THETACOUNTS = 1
; 2THETA	Cnt2_D1
39.2	11
39.21	15
39.22	12
39.23	16
39.24	14
39.25	10
39.26	24
39.27	12
39.28	15
39.29	17
39.3	21
39.31	16
39.32	16
39.33	13
39.34	13
39.35	19
39.36	9.000000
39.37	21
39.38	8.000000
39.39	10
39.4	12
39.41	17
39.42	17
39.43	17
39.44	15
39.45	13
39.46	21
39.47	9.000000
39.48	16
39.49	18
39.5	14
39.51	20
39.52	10
39.53	9.000000
39.54	17
39.55	13
39.56	10
39.57	13
39.58	13
39.59	30
39.6	13
39.61	17
39.62	10
39.63	15
39.64	20
39.65	15
39.66	14
39.67	9.000000
39.68	9.000000
39.69	12
39.7	17
39.71	17
39.72	18
39.73	13
39.74	18
39.75	7.000000
39.76	18
39.77	25
39.78	14
39.79	19
39.8	13
39.81	16
39.82	21
39.83	22
39.84	14
39.85	11
39.86	19
39.87	17
39.88	18
39.89	16
39.9	17
39.91	18
39.92	18
39.93	21
39.94	17
39.95	16
39.96	17
39.97	10
39.98	14
39.99	9.000000
40	22
40.01	16
40.02	12
40.03	19
40.04	21
40.05	19
40.06	14
40.07	11
40.08	18
40.09	18
40.1	13
40.11	12
40.12	12
40.13	13
40.14	23
40.15	15
40.16	10
40.17	18
40.18	12
40.19	15
40.2	11
40.21	15
40.22	17
40.23	17
40.24	18
40.25	16
40.26	7.000000
40.27	10
40.28	15
40.29	15
40.3	7.000000
40.31	18
40.32	13
40.33	14
40.34	17
40.35	15
40.36	16
40.37	9.000000
40.38	22
40.39	12
40.4	14
40.41	10
40.42	24
40.43	18
40.44	12
40.45	18
40.46	26
40.47	13
40.48	12
40.49	17
40.5	11
40.51	14
40.52	19
40.53	22
40.54	15
40.55	12
40.56	21
40.57	21
40.58	16
40.59	24
40.6	14
40.61	12
40.62	19
40.63	15
40.64	19
40.65	11
40.66	16
40.67	16
40.68	14
40.69	9.000000
40.7	16
40.71	9.000000
40.72	21
40.73	13
40.74	13
40.75	11
40.76	18
40.77	14
40.78	11
40.79	14
40.8	10
40.81	16
40.82	14
40.83	14
40.84	14
40.85	11
40.86	13
40.87	18
40.88	18
40.89	20
40.9	11
40.91	15
40.92	13
40.93	22
40.94	13
40.95	26
40.96	19
40.97	14
40.98	11
40.99	18
41	25
41.01	20
41.02	14
41.03	18
41.04	8.000000
41.05	11
41.06	19
41.07	17
41.08	14
41.09	19
41.1	18
41.11	20
41.12	15
41.13	15
41.14	13
41.15	13
41.16	19
41.17	17
41.18	16
41.19	19
41.2	21
41.21	20
41.22	18
41.23	18
41.24	21
41.25	18
41.26	10
41.27	18
41.28	12
41.29	18
41.3	15
41.31	22
41.32	16
41.33	14
41.34	17
41.35	14
41.36	16
41.37	24
41.38	21
41.39	29
41.4	28
41.41	30
41.42	27
41.43	25
41.44	19
41.45	21
41.46	26
41.47	32
41.48	24
41.49	23
41.5	18
41.51	27
41.52	18
41.53	30
41.54	29
41.55	36
41.56	33
41.57	28
41.58	48
41.59	70
41.6	71
41.61	140
41.62	279
41.63	1202
41.64	9367
41.65	38356
41.66	57101
41.67	36402
41.68	5580
41.69	426
41.7	178
41.71	102
41.72	85
41.73	71
41.74	57
41.75	45
41.76	49
41.77	36
41.78	26
41.79	34
41.8	24
41.81	23
41.82	18
41.83	21
41.84	26
41.85	17
41.86	22
41.87	22
41.88	24
41.89	20
41.9	20

; Data for range 4
_DRIVE = COUPLED
_STEPTIME = 19.2
_STEPSIZE = 0.01
_STEPMODE = C
_START = 39.2
_THETA = 19.6
_2THETA = 39.2
_KHI = -0.162797
_PHI = 0.000039
_X = -2.007
_Y = -10.326
_Z = -0.810996
_DETECTORSLIT = out
_AUX1 = 0
_AUX2 = -2.4
_TIMESTARTED = 348.1146
_KV = 40
_MA = 40
_RANGE_WL = 1.5406
_3DPLANE = 0
_V4_PSD2THETA = 9999
_V4_PSDCHANNEL1 = 0
_V4_PSDAPERTURE = 2.057142
_V4_PSDTYPE = 5
_V4_PSDFIXED = 0
_V4_TEMPCONTROL = 0
_V4_TEMPSTAGE = 0
_V4_TEMPSENSOR = 0
_V4_TEMPERATURE = 273.15
_V4_TEMPRATE = 0
_V4_TEMPDELAY = 0
_V4_TEMPRAMPFLAG = 0
_V4_COUNTERS_MASK = 1
_V4_DRIVES_MASK = 0
_V4_ENCODERS_MASK = 0
_2THETACOUNTS = 1
; 2THETA	Cnt2_D1
39.2	14
39.21	15
39.22	18
39.23	22
39.24	10
39.25	25
39.26	16
39.27	17
39.28	10
39.29	13
39.3	20
39.31	17
39.32	17
39.33	16
39.34	23
39.35	6.000000
39.36	18
39.37	15
39.38	18
39.39	20
39.4	17
39.41	20
39.42	13
39.43	26
39.44	16
39.45	19
39.46	16
39.47	17
39.48	12
39.49	9.000000
39.5	14
39.51	20
39.52	23
39.53	22
39.54	19
39.55	22
39.56	10
39.57	12
39.58	22
39.59	19
39.6	25
39.61	17
39.62	15
39.63	25
39.64	11
39.65	16
39.66	20
39.67	17
39.68	19
39.69	19
39.7	20
39.71	11
39.72	12
39.73	16
39.74	15
39.75	20
39.76	14
39.77	18
39.78	17
39.79	9.000000
39.8	18
39.81	15
39.82	20
39.83	11
39.84	13
39.85	18
39.86	16
39.87	16
39.88	17
39.89	15
39.9	19
39.91	23
39.92	12
39.93	24
39.94	11
39.95	14
39.96	17
39.97	24
39.98	16
39.99	16
40	13
40.01	19
40.02	15
40.03	22
40.04	28
40.05	9.000000
40.06	22
40.07	13
40.08	18
40.09	19
40.1	20
40.11	11
40.12	15
40.13	14
40.14	15
40.15	17
40.16	14
40.17	16
40.18	20
40.19	12
40.2	13
40.21	20
40.22	18
40.23	16
40.24	18
40.25	14
40.26	19
40.27	22
40.28	15
40.29	17
40.3	19
40.31	14
40.32	15
40.33	20
40.34	18
40.35	16
40.36	17
40.37	16
40.38	19
40.39	21
40.4	8.000000
40.41	12
40.42	6.000000
40.43	18
40.44	20
40.45	14
40.46	16
40.47	14
40.48	7.000000
40.49	25
40.5	14
40.51	14
40.52	11
40.53	24
40.54	20
40.55	20
40.56	10
40.57	15
40.58	11
40.59	20
40.6	13
40.61	12
40.62	13
40.63	14
40.64	21
40.65	17
40.66	13
40.67	17
40.68	10
40.69	13
40.7	11
40.71	18
40.72	16
40.73	26
40.74	9.000000
40.75	31
40.76	16
40.77	25
40.78	9.000000
40.79	15
40.8	11
40.81	13
40.82	17
40.83	17
40.84	20
40.85	14
40.86	18
40.87	19
40.88	20
40.89	18
40.9	15
40.91	21
40.92	19
40.93	14
40.94	14
40.95	12
40.96	7.000000
40.97	12
40.98	21
40.99	19
41	27
41.01	18
41.02	28
41.03	16
41.04	23
41.05	20
41.06	10
41.07	15
41.08	16
41.09	10
41.1	15
41.11	18
41.12	17
41.13	18
41.14	19
41.15	23
41.16	22
41.17	21
41.18	15
41.19	21
41.2	21
41.21	22
41.22	22
41.23	17
41.24	18
41.25	21
41.26	18
41.27	22
41.28	19
41.29	22
41.3	23
41.31	21
41.32	33
41.33	14
41.34	29
41.35	12
41.36	25
41.37	19
41.38	26
41.39	25
41.4	26
41.41	18
41.42	27
41.43	22
41.44	17
41.45	29
41.46	28
41.47	29
41.48	22
41.49	21
41.5	25
41.51	28
41.52	29
41.53	32
41.54	31
41.55	30
41.56	21
41.57	27
41.58	34
41.59	44
41.6	70
41.61	74
41.62	205
41.63	880
41.64	7070
41.65	32490
41.66	52422
41.67	49350
41.68	26243
41.69	4222
41.7	360
41.71	118
41.72	64
41.73	54
41.74	47
41.75	36
41.76	36
41.77	34
41.78	27
41.79	31
41.8	29
41.81	25
41.82	18
41.83	18
41.84	20
41.85	21
41.86	28
41.87	17
41.88	20
41.89	29
41.9	18

; Data for range 5
_DRIVE = COUPLED
_STEPTIME = 19.2
_STEPSIZE = 0.01
_STEPMODE = C
_START = 39.2
_THETA = 19.6
_2THETA = 39.2
_KHI = -0.162797
_PHI = 0.000039
_X = -2.007
_Y = -10.076
_Z = -0.810996
_DETECTORSLIT = out
_AUX1 = 0
_AUX2 = -2.4
_TIMESTARTED = 404.8207
_KV = 40
_MA = 40
_RANGE_WL = 1.5406
_3DPLANE = 0
_V4_PSD2THETA = 9999
_V4_PSDCHANNEL1 = 0
_V4_PSDAPERTURE = 2.057142
_V4_PSDTYPE = 5
_V4_PSDFIXED = 0
_V4_TEMPCONTROL = 0
_V4_TEMPSTAGE = 0
_V4_TEMPSENSOR = 0
_V4_TEMPERATURE = 273.15
_V4_TEMPRATE = 0
_V4_TEMPDELAY = 0
_V4_TEMPRAMPFLAG = 0
_V4_COUNTERS_MASK = 1
_V4_DRIVES_MASK = 0
_V4_ENCODERS_MASK = 0
_2THETACOUNTS = 1
; 2THETA	Cnt2_D1
39.2	19
39.21	18
39.22	13
39.23	15
39.24	17
39.25	15
39.26	10
39.27	15
39.28	12
39.29	19
39.3	16
39.31	13
39.32	21
39.33	18
39.34	21
39.35	18
39.36	12
39.37	25
39.38	10
39.39	11
39.4	21
39.41	13
39.42	11
39.43	13
39.44	14
39.45	21
39.46	14
39.47	14
39.48	13
39.49	8.000000
39.5	12
39.51	20
39.52	21
39.53	19
39.54	20
39.55	12
39.56	14
39.57	16
39.58	26
39.59	16
39.6	13
39.61	17
39.62	19
39.63	23
39.64	16
39.65	14
39.66	14
39.67	11
39.68	19
39.69	18
39.7	17
39.71	23
39.72	20
39.73	21
39.74	8.000000
39.75	18
39.76	14
39.77	20
39.78	10
39.79	20
39.8	11
39.81	16
39.82	19
39.83	11
39.84	25
39.85	24
39.86	18
39.87	21
39.88	20
39.89	16
39.9	11
39.91	23
39.92	20
39.93	20
39.94	11
39.95	13
39.96	20
39.97	15
39.98	13
39.99	14
40	12
40.01	19
40.02	16
40.03	20
40.04	18
40.05	18
40.06	23
40.07	13
40.08	16
40.09	14
40.1	8.000000
40.11	9.000000
40.12	16
40.13	17
40.14	13
40.15	19
40.16	15
40.17	14
40.18	16
40.19	13
40.2	17
40.21	17
40.22	10
40.23	22
40.24	19
40.25	13
40.26	14
40.27	9.000000
40.28	20
40.29	19
40.3	23
40.31	18
40.32	10
40.33	17
40.34	17
40.35	16
40.36	15
40.37	9.000000
40.38	23
40.39	15
40.4	12
40.41	15
40.42	20
40.43	17
40.44	16
40.45	24
40.46	19
40.47	15
40.48	21
40.49	11
40.5	11
40.51	19
40.52	17
40.53	9.000000
40.54	10
40.55	20
40.56	8.000000
40.57	13
40.58	17
40.59	16
40.6	16
40.61	19
40.62	12
40.63	10
40.64	17
40.65	15
40.66	16
40.67	13
40.68	8.000000
40.69	11
40.7	21
40.71	13
40.72	16
40.73	29
40.74	18
40.75	13
40.76	16
40.77	26
40.78	11
40.79	9.000000
40.8	14
40.81	28
40.82	16
40.83	19
40.84	15
40.85	17
40.86	24
40.87	16
40.88	14
40.89	16
40.9	18
40.91	13
40.92	18
40.93	16
40.94	17
40.95	15
40.96	14
40.97	15
40.98	14
40.99	23
41	18
41.01	13
41.02	19
41.03	12
41.04	16
41.05	15
41.06	15
41.07	16
41.08	13
41.09	12
41.1	15
41.11	14
41.12	12
41.13	20
41.14	19
41.15	12
41.16	20
41.17	19
41.18	24
41.19	17
41.2	9.000000
41.21	24
41.22	18
41.23	20
41.24	24
41.25	11
41.26	18
41.27	16
41.28	23
41.29	17
41.3	22
41.31	15
41.32	17
41.33	17
41.34	30
41.35	19
41.36	14
41.37	31
41.38	30
41.39	16
41.4	19
41.41	27
41.42	26
41.43	26
41.44	26
41.45	21
41.46	29
41.47	23
41.48	33
41.49	24
41.5	41
41.51	32
41.52	17
41.53	27
41.54	23
41.55	28
41.56	30
41.57	32
41.58	37
41.59	40
41.6	43
41.61	67
41.62	157
41.63	757
41.64	5984
41.65	30810
41.66	50177
41.67	49790
41.68	27854
41.69	5764
41.7	635
41.71	138
41.72	88
41.73	56
41.74	58
41.75	36
41.76	37
41.77	36
41.78	35
41.79	23
41.8	28
41.81	16
41.82	18
41.83	30
41.84	23
41.85	17
41.86	13
41.87	27
41.88	24
41.89	19
41.9	12

; Data for range 6
_DRIVE = COUPLED
_STEPTIME = 19.2
_STEPSIZE = 0.01
_STEPMODE = C
_START = 39.2
_THETA = 19.6
_2THETA = 39.2
_KHI = -0.162797
_PHI = 0.000039
_X = -2.007
_Y = -9.826
_Z = -0.810996
_DETECTORSLIT = out
_AUX1 = 0
_AUX2 = -2.4
_TIMESTARTED = 461.5892
_KV = 40
_MA = 40
_RANGE_WL = 1.5406
_3DPLANE = 0
_V4_PSD2THETA = 9999
_V4_PSDCHANNEL1 = 0
_V4_PSDAPERTURE = 2.057142
_V4_PSDTYPE = 5
_V4_PSDFIXED = 0
_V4_TEMPCONTROL = 0
_V4_TEMPSTAGE = 0
_V4_TEMPSENSOR = 0
_V4_TEMPERATURE = 273.15
_V4_TEMPRATE = 0
_V4_TEMPDELAY = 0
_V4_TEMPRAMPFLAG = 0
_V4_COUNTERS_MASK = 1
_V4_DRIVES_MASK = 0
_V4_ENCODERS_MASK = 0
_2THETACOUNTS = 1
[...]
39.21	15
39.22	21
39.23	16
39.24	13
39.25	22
39.26	27
39.27	19
39.28	20
39.29	12
39.3	25
39.31	19
39.32	19
39.33	16
39.34	12
39.35	17
39.36	21
39.37	23
39.38	22
39.39	19
39.4	12
39.41	18
39.42	17
39.43	30
39.44	12
39.45	16
39.46	21
39.47	18
39.48	16
39.49	12
39.5	21
39.51	24
39.52	21
39.53	18
39.54	20
39.55	21
39.56	18
39.57	20
39.58	22
39.59	16
39.6	23
39.61	23
39.62	24
39.63	32
39.64	31
39.65	24
39.66	33
39.67	28
39.68	16
39.69	32
39.7	42
39.71	36
39.72	27
39.73	26
39.74	30
39.75	36
39.76	38
39.77	43
39.78	40
39.79	65
39.8	40
39.81	52
39.82	70
39.83	65
39.84	87
39.85	82
39.86	103
39.87	111
39.88	119
39.89	165
39.9	175
39.91	235
39.92	254
39.93	288
39.94	314
39.95	341
39.96	344
39.97	347
39.98	399
39.99	424
40	361
40.01	344
40.02	351
40.03	299
40.04	289
40.05	266
40.06	225
40.07	223
40.08	180
40.09	168
40.1	131
40.11	139
40.12	104
40.13	98
40.14	83
40.15	71
40.16	60
40.17	61
40.18	56
40.19	65
40.2	56
40.21	65
40.22	47
40.23	43
40.24	43
40.25	38
40.26	33
40.27	30
40.28	32
40.29	32
40.3	32
40.31	34
40.32	32
40.33	22
40.34	32
40.35	22
40.36	31
40.37	19
40.38	24
40.39	17
40.4	12
40.41	22
40.42	22
40.43	21
40.44	30
40.45	25
40.46	30
40.47	25
40.48	16
40.49	20
40.5	12
40.51	20
40.52	25
40.53	24
40.54	15
40.55	26
40.56	20
40.57	21
40.58	15
40.59	20
40.6	19
40.61	17
40.62	14
40.63	12
40.64	21
40.65	22
40.66	8.000000
40.67	20
40.68	24
40.69	15
40.7	14
40.71	17
40.72	17
40.73	23
40.74	20
40.75	11
40.76	18
40.77	17
40.78	16
40.79	21
40.8	14
40.81	16
40.82	17
40.83	18
40.84	16
40.85	19
40.86	5.000000
40.87	14
40.88	15
40.89	16
40.9	15
40.91	11
40.92	19
40.93	16
40.94	11
40.95	16
40.96	19
40.97	11
40.98	18
40.99	12
41	12
41.01	19
41.02	21
41.03	11
41.04	17
41.05	18
41.06	21
41.07	18
41.08	19
41.09	19
41.1	18
41.11	22
41.12	20
41.13	17
41.14	28
41.15	12
41.16	20
41.17	23
41.18	24
41.19	19
41.2	18
41.21	14
41.22	12
41.23	18
41.24	18
41.25	14
41.26	23
41.27	22
41.28	13
41.29	20
41.3	17
41.31	23
41.32	18
41.33	22
41.34	17
41.35	13
41.36	16
41.37	21
41.38	25
41.39	24
41.4	23
41.41	27
41.42	16
41.43	28
41.44	21
41.45	32
41.46	22
41.47	24
41.48	22
41.49	28
41.5	52
41.51	25
41.52	27
41.53	22
41.54	14
41.55	22
41.56	24
41.57	32
41.58	28
41.59	30
41.6	50
41.61	125
41.62	201
41.63	307
41.64	453
41.65	1804
41.66	14391
41.67	44184
41.68	57351
41.69	46848
41.7	16439
41.71	2403
41.72	309
41.73	100
41.74	78
41.75	79
41.76	90
41.77	100
41.78	69
41.79	54
41.8	30
41.81	31
41.82	28
41.83	24
41.84	26
41.85	34
41.86	23
41.87	25
41.88	17
41.89	25
41.9	26

; Data for range 80
_DRIVE = COUPLED
_STEPTIME = 19.2
_STEPSIZE = 0.01
_STEPMODE = C
_START = 39.2
_THETA = 19.6
_2THETA = 39.2
_KHI = -0.162797
_PHI = 0.000039
_X = -2.007
_Y = 8.674
_Z = -0.810996
_DETECTORSLIT = out
_AUX1 = 0
_AUX2 = -2.4
_TIMESTARTED = 4662.445
_KV = 40
_MA = 40
_RANGE_WL = 1.5406
_3DPLANE = 0
_V4_PSD2THETA = 9999
_V4_PSDCHANNEL1 = 0
_V4_PSDAPERTURE = 2.057142
_V4_PSDTYPE = 5
_V4_PSDFIXED = 0
_V4_TEMPCONTROL = 0
_V4_TEMPSTAGE = 0
_V4_TEMPSENSOR = 0
_V4_TEMPERATURE = 273.15
_V4_TEMPRATE = 0
_V4_TEMPDELAY = 0
_V4_TEMPRAMPFLAG = 0
_V4_COUNTERS_MASK = 1
_V4_DRIVES_MASK = 0
_V4_ENCODERS_MASK = 0
_2THETACOUNTS = 1
; 2THETA	Cnt2_D1
39.2	18
39.21	25
39.22	16
39.23	13
39.24	25
39.25	10
39.26	14
39.27	20
39.28	20
39.29	24
39.3	11
39.31	19
39.32	11
39.33	12
39.34	22
39.35	21
39.36	25
39.37	17
39.38	19
39.39	17
39.4	19
39.41	11
39.42	17
39.43	12
39.44	21
39.45	28
39.46	13
39.47	15
39.48	19
39.49	27
39.5	23
39.51	19
39.52	16
39.53	9.000000
39.54	17
39.55	17
39.56	18
39.57	19
39.58	17
39.59	27
39.6	22
39.61	20
39.62	17
39.63	24
39.64	15
39.65	14
39.66	31
39.67	26
39.68	23
39.69	24
39.7	31
39.71	24
39.72	22
39.73	35
39.74	28
39.75	32
39.76	31
39.77	22
39.78	29
39.79	48
39.8	33
39.81	36
39.82	43
39.83	36
39.84	36
39.85	42
39.86	49
39.87	48
39.88	49
39.89	71
39.9	80
39.91	104
39.92	80
39.93	104
39.94	99
39.95	123
39.96	112
39.97	139
39.98	139
39.99	159
40	157
40.01	137
40.02	155
40.03	143
40.04	150
40.05	134
40.06	104
40.07	88
40.08	92
40.09	87
40.1	88
40.11	78
40.12	60
40.13	72
40.14	67
40.15	39
40.16	48
40.17	50
40.18	29
40.19	39
40.2	35
40.21	34
40.22	33
40.23	32
40.24	32
40.25	23
40.26	30
40.27	26
40.28	35
40.29	22
40.3	21
40.31	22
40.32	27
40.33	25
40.34	16
40.35	18
40.36	19
40.37	20
40.38	23
40.39	20
40.4	24
40.41	23
40.42	18
40.43	22
40.44	20
40.45	11
40.46	12
40.47	13
40.48	26
40.49	20
40.5	17
40.51	16
40.52	13
40.53	11
40.54	20
40.55	27
40.56	20
40.57	11
40.58	17
40.59	21
40.6	18
40.61	18
40.62	20
40.63	16
40.64	17
40.65	16
40.66	20
40.67	21
40.68	21
40.69	13
40.7	21
40.71	15
40.72	17
40.73	19
40.74	18
40.75	18
40.76	14
40.77	15
40.78	20
40.79	21
40.8	18
40.81	16
40.82	10
40.83	17
40.84	14
40.85	18
40.86	15
40.87	16
40.88	15
40.89	13
40.9	16
40.91	23
40.92	13
40.93	15
40.94	18
40.95	19
40.96	16
40.97	20
40.98	13
40.99	19
41	19
41.01	11
41.02	15
41.03	11
41.04	12
41.05	17
41.06	16
41.07	15
41.08	20
41.09	19
41.1	14
41.11	27
41.12	24
41.13	20
41.14	22
41.15	18
41.16	21
41.17	18
41.18	24
41.19	11
41.2	22
41.21	17
41.22	17
41.23	17
41.24	19
41.25	23
41.26	27
41.27	24
41.28	17
41.29	15
41.3	11
41.31	22
41.32	26
41.33	17
41.34	13
41.35	24
41.36	37
41.37	22
41.38	19
41.39	24
41.4	33
41.41	25
41.42	28
41.43	33
41.44	27
41.45	28
41.46	27
41.47	26
41.48	37
41.49	27
41.5	35
41.51	40
41.52	35
41.53	29
41.54	32
41.55	36
41.56	24
41.57	31
41.58	26
41.59	36
41.6	48
41.61	68
41.62	192
41.63	641
41.64	2337
41.65	6943
41.66	18961
41.67	44814
41.68	56763
41.69	47686
41.7	16932
41.71	2403
41.72	319
41.73	110
41.74	87
41.75	88
41.76	96
41.77	105
41.78	85
41.79	45
41.8	38
41.81	36
41.82	30
41.83	21
41.84	27
41.85	30
41.86	21
41.87	22
41.88	15
41.89	17
41.9	29

; Data for range 81
_DRIVE = COUPLED
_STEPTIME = 19.2
_STEPSIZE = 0.01
_STEPMODE = C
_START = 39.2
_THETA = 19.6
_2THETA = 39.2
_KHI = -0.162797
_PHI = 0.000039
_X = -2.007
_Y = 8.924
_Z = -0.810996
_DETECTORSLIT = out
_AUX1 = 0
_AUX2 = -2.4
_TIMESTARTED = 4719.198
_KV = 40
_MA = 40
_RANGE_WL = 1.5406
_3DPLANE = 0
_V4_PSD2THETA = 9999
_V4_PSDCHANNEL1 = 0
_V4_PSDAPERTURE = 2.057142
_V4_PSDTYPE = 5
_V4_PSDFIXED = 0
_V4_TEMPCONTROL = 0
_V4_TEMPSTAGE = 0
_V4_TEMPSENSOR = 0
_V4_TEMPERATURE = 273.15
_V4_TEMPRATE = 0
_V4_TEMPDELAY = 0
_V4_TEMPRAMPFLAG = 0
_V4_COUNTERS_MASK = 1
_V4_DRIVES_MASK = 0
_V4_ENCODERS_MASK = 0
_2THETACOUNTS = 1
; 2THETA	Cnt2_D1
39.2	15
39.21	20
39.22	26
39.23	14
39.24	15
39.25	14
39.26	24
39.27	17
39.28	22
39.29	23
39.3	20
39.31	18
39.32	16
39.33	21
39.34	22
39.35	16
39.36	17
39.37	24
39.38	19
39.39	14
39.4	17
39.41	24
39.42	23
39.43	26
39.44	19
39.45	21
39.46	22
39.47	20
39.48	20
39.49	19
39.5	13
39.51	12
39.52	13
39.53	18
39.54	14
39.55	19
39.56	20
39.57	26
39.58	20
39.59	24
39.6	16
39.61	23
39.62	16
39.63	23
39.64	21
39.65	14
39.66	19
39.67	24
39.68	34
39.69	26
39.7	15
39.71	20
39.72	27
39.73	18
39.74	19
39.75	23
39.76	35
39.77	26
39.78	21
39.79	29
39.8	20
39.81	29
39.82	26
39.83	16
39.84	23
39.85	26
39.86	21
39.87	19
39.88	30
39.89	29
39.9	36
39.91	18
39.92	35
39.93	34
39.94	27
39.95	18
39.96	22
39.97	44
39.98	25
39.99	42
40	26
40.01	33
40.02	32
40.03	32
40.04	23
40.05	38
40.06	31
40.07	25
40.08	29
40.09	31
40.1	22
40.11	29
40.12	32
40.13	28
40.14	20
40.15	28
40.16	21
40.17	24
40.18	35
40.19	19
40.2	22
40.21	21
40.22	21
40.23	16
40.24	16
40.25	17
40.26	21
40.27	19
40.28	27
40.29	22
40.3	16
40.31	18
40.32	25
40.33	9.000000
40.34	21
40.35	17
40.36	20
40.37	17
40.38	19
40.39	19
40.4	16
40.41	20
40.42	17
40.43	26
40.44	20
40.45	25
40.46	28
40.47	25
40.48	24
40.49	12
40.5	21
40.51	25
40.52	23
40.53	19
40.54	12
40.55	17
40.56	14
40.57	24
40.58	25
40.59	21
40.6	11
40.61	19
40.62	21
40.63	16
40.64	19
40.65	21
40.66	20
40.67	17
40.68	14
40.69	19
40.7	23
40.71	22
40.72	19
40.73	24
40.74	22
40.75	15
40.76	17
40.77	15
40.78	22
40.79	17
40.8	21
40.81	21
40.82	24
40.83	18
40.84	25
40.85	18
40.86	17
40.87	13
40.88	15
40.89	18
40.9	26
40.91	17
40.92	26
40.93	22
40.94	26
40.95	19
40.96	15
40.97	14
40.98	17
40.99	32
41	18
41.01	25
41.02	16
41.03	18
41.04	22
41.05	12
41.06	15
41.07	28
41.08	22
41.09	22
41.1	23
41.11	21
41.12	20
41.13	22
41.14	19
41.15	20
41.16	17
41.17	23
41.18	21
41.19	13
41.2	27
41.21	19
41.22	23
41.23	23
41.24	20
41.25	14
41.26	25
41.27	25
41.28	17
41.29	17
41.3	22
41.31	35
41.32	16
41.33	17
41.34	25
41.35	16
41.36	22
41.37	27
41.38	31
41.39	35
41.4	37
41.41	38
41.42	37
41.43	39
41.44	36
41.45	35
41.46	41
41.47	45
41.48	42
41.49	47
41.5	47
41.51	54
41.52	57
41.53	47
41.54	44
41.55	33
41.56	39
41.57	38
41.58	45
41.59	46
41.6	44
41.61	70
41.62	88
41.63	205
41.64	827
41.65	5146
41.66	22508
41.67	49829
41.68	60406
41.69	47228
41.7	16781
41.71	2647
41.72	329
41.73	149
41.74	96
41.75	101
41.76	106
41.77	101
41.78	83
41.79	58
41.8	37
41.81	28
41.82	16
41.83	26
41.84	30
41.85	30
41.86	25
41.87	17
41.88	18
41.89	22
41.9	16